File: DataFile2021-07-15_080623.csv
Test ID:,Date Tested:,Time:,Test Type:,Diameter Avg. (mm):,Cyl. Corr. Factor:,Height (mm):,Age (days):,Weight (kN):,Break Type:,Ramp Rate (MPa/s):,Load at Break (kN):,Stress at Break (MPa):
12,7/15/2021,08:06,Cylinder,100,1,200,0,3.6,3,0.25,1435.29,182.75
Sample Time,Load (kN),Stress (MPa),Long. Strain,Trans. Strain,Chan1 Deflection (mm),Chan2 Deflection (mm)
0:0:23.034,5.21776,0.661897,0,0.000885,0,0
0:0:26.114,10.9693,1.39964,0,0.000885,0,0
0:0:29.224,16.7742,2.13737,0,0.000885,0,0
0:0:32.314,23.0507,2.93717,0,0.000885,0,0
0:0:35.433,26.5114,3.37843,0,0.000885,0,0
0:0:38.523,31.4934,4.01275,0,0.000885,0,0
0:0:41.623,37.245,4.74359,0,0.000885,0,0
0:0:44.728,44.1619,5.62612,0,0.000885,0,0
0:0:47.814,52.1421,6.63965,0,0.000885,0,0
0:0:50.932,61.1141,7.78418,0,0.000885,0,0
0:0:54.024,66.0383,8.4116,0,0.000885,0,0
0:0:57.123,72.0834,9.17692,0,0.000885,0,0
0:1:0.233,78.2398,9.96292,0,0.000885,0,0
0:1:3.315,84.0447,10.7007,0,0.000885,0,0
0:1:6.427,90.1477,11.4798,0,0.000885,0,0
0:1:9.527,96.6554,12.3071,0,0.000885,0,0
0:1:12.617,102.58,13.0587,0,0.000885,0,0
0:1:15.735,108.621,13.8309,0,0.000885,0,0
0:1:18.829,114.777,14.6169,0,0.000885,0,0
0:1:21.927,120.351,15.3202,0,0.000885,0,0
0:1:25.038,126.801,16.1475,0,0.000885,0,0
0:1:28.120,133.135,16.9542,0,0.000885,0,0
0:1:31.237,139.59,17.7747,0,0.000885,0,0
0:1:34.338,144.985,18.4573,0,0.000885,0,0
0:1:37.427,151.493,19.2915,0,0.000885,0,0
0:1:40.534,156.889,19.9741,0,0.000885,0,0
0:1:43.613,163.459,20.8153,0,0.000885,0,0
0:1:46.726,169.851,21.6289,0,0.000885,0,0
0:1:49.844,175.66,22.3666,0,0.000885,0,0
0:1:52.926,181.581,23.1181,0,0.000885,0,0
0:1:56.035,187.622,23.8903,0,0.000885,0,0
0:1:59.137,193.662,24.6557,0,0.000885,0,0
0:2:2.221,200.468,25.5244,0,0.000885,0,0
0:2:5.325,205.922,26.2208,0,0.000885,0,0
0:2:8.431,211.904,26.9792,0,0.000885,0,0
0:2:11.522,217.887,27.7445,0,0.000885,0,0
0:2:14.637,224.337,28.565,0,0.000885,0,0
0:2:17.728,230.32,29.3234,0,0.000885,0,0
0:2:20.827,236.539,30.1163,0,0.000885,0,0
0:2:23.924,242.931,30.9299,0,0.000885,0,0
0:2:27.023,248.384,31.6263,0,0.000885,0,0
0:2:30.132,254.603,32.4191,0,0.000885,0,0
0:2:33.224,260.759,33.1983,0,0.000885,0,0
0:2:36.332,266.978,33.9912,0,0.000885,0,0
0:2:39.417,272.667,34.7151,0,0.000885,0,0
0:2:42.528,278.414,35.4459,0,0.000885,0,0
0:2:45.625,284.984,36.2871,0,0.000885,0,0
0:2:48.733,291.612,37.1283,0,0.000885,0,0
0:2:51.829,297.417,37.866,0,0.000885,0,0
0:2:54.935,303.4,38.6313,0,0.000885,0,0
0:2:58.036,309.498,39.4035,0,0.000885,0,0
0:3:1.133,315.775,40.2033,0,0.000885,0,0
0:3:4.242,321.931,40.9893,0,0.000885,0,0
0:3:7.328,327.211,41.665,0,0.000885,0,0
0:3:10.423,333.545,42.4717,0,0.000885,0,0
0:3:13.535,339.702,43.2508,0,0.000885,0,0
0:3:16.632,345.863,44.0368,0,0.000885,0,0
0:3:19.738,351.552,44.7608,0,0.000885,0,0
0:3:22.831,358.18,45.6019,0,0.000885,0,0
0:3:25.936,364.336,46.3879,0,0.000885,0,0
0:3:29.038,369.91,47.0981,0,0.000885,0,0
0:3:32.132,376.302,47.9117,0,0.000885,0,0
0:3:35.237,382.694,48.7252,0,0.000885,0,0
0:3:38.338,388.912,49.5181,0,0.000885,0,0
0:3:41.437,395.127,50.311,0,0.000885,0,0
0:3:44.543,400.936,51.0488,0,0.000885,0,0
0:3:47.641,406.447,51.752,0,0.000885,0,0
0:3:50.738,413.017,52.5863,0,0.000885,0,0
0:3:53.842,419.409,53.3999,0,0.000885,0,0
0:3:56.938,425.335,54.1583,0,0.000885,0,0
0:4:0.028,431.197,54.903,0,0.000885,0,0
0:4:3.141,436.299,55.5511,0,0.000885,0,0
0:4:6.237,443.399,56.4543,0,0.000885,0,0
0:4:9.346,449.261,57.1989,0,0.000885,0,0
0:4:12.434,455.596,58.0056,0,0.000885,0,0
0:4:15.539,461.579,58.7709,0,0.000885,0,0
0:4:18.638,467.677,59.55,0,0.000885,0,0
0:4:21.743,474.011,60.3498,0,0.000885,0,0
0:4:24.839,479.936,61.1082,0,0.000885,0,0
0:4:27.938,485.51,61.8184,0,0.000885,0,0
0:4:31.032,492.018,62.6458,0,0.000885,0,0
0:4:34.146,497.943,63.3973,0,0.000885,0,0
0:4:37.239,503.868,64.1557,0,0.000885,0,0
0:4:40.346,510.376,64.9831,0,0.000885,0,0
0:4:43.439,517.003,65.8242,0,0.000885,0,0
0:4:46.538,521.99,66.4586,0,0.000885,0,0
0:4:49.650,528.382,67.279,0,0.000885,0,0
0:4:52.745,534.481,68.0513,0,0.000885,0,0
0:4:55.839,541.344,68.9269,0,0.000885,0,0
0:4:58.945,546.682,69.6026,0,0.000885,0,0
0:5:2.034,553.19,70.4368,0,0.000885,0,0
0:5:5.140,558.706,71.1332,0,0.000885,0,0
0:5:8.234,565.391,71.9882,0,0.000885,0,0
0:5:11.329,571.138,72.719,0,0.000885,0,0
0:5:14.452,577.179,73.4912,0,0.000885,0,0
0:5:17.540,583.22,74.2565,0,0.000885,0,0
0:5:20.641,589.558,75.0632,0,0.000885,0,0
0:5:23.737,595.839,75.863,0,0.000885,0,0
0:5:26.844,601.591,76.5939,0,0.000885,0,0
0:5:29.951,607.578,77.3592,0,0.000885,0,0
0:5:33.032,614.153,78.1934,0,0.000885,0,0
0:5:36.144,620.14,78.9588,0,0.000885,0,0
0:5:39.246,626.069,79.7103,0,0.000885,0,0
0:5:42.349,631.349,80.386,0,0.000885,0,0
0:5:45.459,637.457,81.1651,0,0.000885,0,0
0:5:48.555,643.675,81.958,0,0.000885,0,0
0:5:51.646,650.312,82.7991,0,0.000885,0,0
0:5:54.753,656.531,83.592,0,0.000885,0,0
0:5:57.850,662.638,84.3711,0,0.000885,0,0
0:6:0.950,669.035,85.1847,0,0.000885,0,0
0:6:4.052,674.026,85.819,0,0.000885,0,0
0:6:7.154,681.009,86.7085,0,0.000885,0,0
0:6:10.256,687.29,87.5083,0,0.000885,0,0
0:6:13.339,692.811,88.2115,0,0.000885,0,0
0:6:16.439,698.913,88.9906,0,0.000885,0,0
0:6:19.556,705.194,89.7904,0,0.000885,0,0
0:6:22.635,711.004,90.5282,0,0.000885,0,0
0:6:25.737,717.578,91.3624,0,0.000885,0,0
0:6:28.851,723.801,92.1553,0,0.000885,0,0
0:6:31.953,729.379,92.8655,0,0.000885,0,0
0:6:35.052,735.776,93.6791,0,0.000885,0,0
0:6:38.143,741.412,94.3961,0,0.000885,0,0
0:6:41.245,747.163,95.1339,0,0.000885,0,0
0:6:44.349,754.031,96.0095,0,0.000885,0,0
0:6:47.453,759.783,96.7403,0,0.000885,0,0
0:6:50.551,766.478,97.5884,0,0.000885,0,0
0:6:53.645,772.345,98.3399,0,0.000885,0,0
0:6:56.757,777.981,99.057,0,0.000885,0,0
0:6:59.859,783.968,99.8154,0,0.000885,0,0
0:7:2.945,790.191,100.608,0,0.000885,0,0
0:7:6.064,796.414,101.401,0,0.000885,0,0
0:7:9.162,802.459,102.173,0,0.000885,0,0
0:7:12.252,808.211,102.904,0,0.000885,0,0
0:7:15.354,814.785,103.739,0,0.000885,0,0
0:7:18.460,820.599,104.483,0,0.000885,0,0
0:7:21.560,826.88,105.283,0,0.000885,0,0
0:7:24.654,832.983,106.062,0,0.000885,0,0
0:7:27.752,839.322,106.869,0,0.000885,0,0
0:7:30.855,845.073,107.6,0,0.000885,0,0
0:7:33.952,851.003,108.351,0,0.000885,0,0
0:7:37.047,857.404,109.165,0,0.000885,0,0
0:7:40.159,863.68,109.964,0,0.000885,0,0
0:7:43.252,868.849,110.626,0,0.000885,0,0
0:7:46.358,875.481,111.468,0,0.000885,0,0
0:7:49.470,881.468,112.233,0,0.000885,0,0
0:7:52.562,887.514,113.005,0,0.000885,0,0
0:7:55.659,894.088,113.839,0,0.000885,0,0
0:7:58.753,899.666,114.549,0,0.000885,0,0
0:8:1.858,906.121,115.37,0,0.000885,0,0
0:8:4.954,912.05,116.128,0,0.000885,0,0
0:8:8.041,918.037,116.887,0,0.000885,0,0
0:8:11.150,924.025,117.652,0,0.000885,0,0
0:8:14.275,930.012,118.411,0,0.000885,0,0
0:8:17.356,936.408,119.224,0,0.000885,0,0
0:8:20.454,942.222,119.969,0,0.000885,0,0
0:8:23.567,948.739,120.796,0,0.000885,0,0
0:8:26.657,954.726,121.561,0,0.000885,0,0
0:8:29.767,960.945,122.354,0,0.000885,0,0
0:8:32.851,966.759,123.092,0,0.000885,0,0
0:8:35.949,973.333,123.926,0,0.000885,0,0
0:8:39.044,978.32,124.561,0,0.000885,0,0
0:8:42.164,985.308,125.45,0,0.000885,0,0
0:8:45.267,991.175,126.202,0,0.000885,0,0
0:8:48.359,996.869,126.926,0,0.000885,0,0
0:8:51.457,1003.56,127.781,0,0.000885,0,0
0:8:54.571,1009.14,128.491,0,0.000885,0,0
0:8:57.653,1015.54,129.304,0,0.000885,0,0
0:9:0.754,1021.76,130.097,0,0.000885,0,0
0:9:3.879,1027.86,130.869,0,0.000885,0,0
0:9:6.970,1034.14,131.669,0,0.000885,0,0
0:9:10.072,1039.54,132.359,0,0.000885,0,0
0:9:13.161,1046.36,133.227,0,0.000885,0,0
0:9:16.273,1051.93,133.938,0,0.000885,0,0
0:9:19.360,1058.21,134.737,0,0.000885,0,0
0:9:22.469,1064.37,135.523,0,0.000885,0,0
0:9:25.568,1070.77,136.337,0,0.000885,0,0
0:9:28.657,1076.59,137.075,0,0.000885,0,0
0:9:31.756,1082.75,137.861,0,0.000885,0,0
0:9:34.864,1088.44,138.585,0,0.000885,0,0
0:9:37.939,1094.49,139.357,0,0.000885,0,0
0:9:41.041,1100.77,140.157,0,0.000885,0,0
0:9:44.131,1107.11,140.963,0,0.000885,0,0
0:9:47.220,1112.68,141.673,0,0.000885,0,0
0:9:50.320,1118.73,142.439,0,0.000885,0,0
0:9:53.401,1124.66,143.197,0,0.000885,0,0
0:9:56.497,1130.47,143.935,0,0.000885,0,0
0:9:59.594,1137.05,144.776,0,0.000885,0,0
0:10:2.673,1143.33,145.576,0,0.000885,0,0
0:10:5.775,1149.67,146.383,0,0.000885,0,0
0:10:8.875,1155.47,147.12,0,0.000885,0,0
0:10:11.960,1161.05,147.83,0,0.000885,0,0
0:10:15.073,1167.1,148.603,0,0.000885,0,0
0:10:18.167,1173.21,149.375,0,0.000885,0,0
0:10:21.273,1179.95,150.237,0,0.000885,0,0
0:10:24.378,1185.7,150.968,0,0.000885,0,0
0:10:27.473,1191.34,151.685,0,0.000885,0,0
0:10:30.578,1197.86,152.519,0,0.000885,0,0
0:10:33.665,1204.02,153.298,0,0.000885,0,0
0:10:36.761,1209.65,154.015,0,0.000885,0,0
0:10:39.882,1216.29,154.863,0,0.000885,0,0
0:10:42.956,1222.63,155.67,0,0.000885,0,0
0:10:46.065,1228.26,156.387,0,0.000885,0,0
0:10:49.169,1234.25,157.152,0,0.000885,0,0
0:10:52.251,1240.53,157.952,0,0.000885,0,0
0:10:55.351,1245.87,158.628,0,0.000885,0,0
0:10:58.432,1252.27,159.441,0,0.000885,0,0
0:11:1.527,1258.61,160.248,0,0.000885,0,0
0:11:4.628,1265.07,161.075,0,0.000885,0,0
0:11:7.705,1270.94,161.82,0,0.000885,0,0
0:11:10.802,1276.39,162.516,0,0.000885,0,0
0:11:13.897,1282.85,163.337,0,0.000885,0,0
0:11:16.981,1288.96,164.116,0,0.000885,0,0
0:11:20.091,1294.83,164.861,0,0.000885,0,0
0:11:23.174,1301.46,165.709,0,0.000885,0,0
0:11:26.274,1307.39,166.46,0,0.000885,0,0
0:11:29.384,1313.2,167.205,0,0.000885,0,0
0:11:32.467,1319.42,167.991,0,0.000885,0,0
0:11:35.565,1325.12,168.722,0,0.000885,0,0
0:11:38.651,1331.34,169.515,0,0.000885,0,0
0:11:41.744,1337.62,170.314,0,0.000885,0,0
0:11:44.848,1343.55,171.066,0,0.000885,0,0
0:11:47.919,1349.77,171.859,0,0.000885,0,0
0:11:51.020,1356.23,172.679,0,0.000885,0,0
0:11:54.115,1361.98,173.41,0,0.000885,0,0
0:11:57.198,1368.02,174.182,0,0.000885,0,0
0:12:0.300,1373.78,174.913,0,0.000885,0,0
0:12:3.386,1380.12,175.72,0,0.000885,0,0
0:12:6.476,1386.34,176.513,0,0.000885,0,0
0:12:9.589,1392.68,177.319,0,0.000885,0,0
0:12:12.670,1398.32,178.036,0,0.000885,0,0
0:12:15.785,1404.89,178.878,0,0.000885,0,0
0:12:18.887,1410.94,179.643,0,0.000885,0,0
0:12:21.978,1417.39,180.47,0,0.000885,0,0
0:12:25.091,1422.67,181.139,0,0.000885,0,0
0:12:28.163,1429.13,181.96,0,0.000885,0,0
0:12:31.263,1434.89,182.697,0,0.000885,0,0
0:12:33.604,1078.4,137.309,0,0.000885,0,0