File: DataFile2021-06-09_061230.csv
Test ID:,Date Tested:,Time:,Test Type:,Diameter Avg. (mm):,Cyl. Corr. Factor:,Height (mm):,Age (days):,Weight (kN):,Break Type:,Ramp Rate (MPa/s):,Load at Break (kN):,Stress at Break (MPa):
12,6/9/2021,06:12,Cylinder,100,1,200,0,3.6,3,0.25,502.16,63.94
Sample Time,Load (kN),Stress (MPa),Long. Strain,Trans. Strain,Chan1 Deflection (mm),Chan2 Deflection (mm)
0:0:6.043,5.04428,0.641212,0,0.000885,0,0
0:0:7.249,9.73716,1.24106,0,0.000885,0,0
0:0:8.435,9.79498,1.24795,0,0.000885,0,0
0:0:9.658,11.552,1.46858,0,0.000885,0,0
0:0:10.863,14.0742,1.79264,0,0.000885,0,0
0:0:12.070,17.3036,2.20632,0,0.000885,0,0
0:0:13.277,20.2928,2.58553,0,0.000885,0,0
0:0:14.473,21.6406,2.7579,0,0.000885,0,0
0:0:15.664,24.1049,3.06817,0,0.000885,0,0
0:0:16.872,26.805,3.4129,0,0.000885,0,0
0:0:18.082,28.6821,3.65422,0,0.000885,0,0
0:0:19.275,31.2043,3.97138,0,0.000885,0,0
0:0:20.471,33.9577,4.32301,0,0.000885,0,0
0:0:21.668,35.8927,4.57122,0,0.000885,0,0
0:0:22.882,38.6506,4.92286,0,0.000885,0,0
0:0:24.081,40.7012,5.18486,0,0.000885,0,0
0:0:25.278,42.6985,5.43307,0,0.000885,0,0
0:0:26.476,45.3941,5.77781,0,0.000885,0,0
0:0:27.689,48.2098,6.13633,0,0.000885,0,0
0:0:28.886,49.8512,6.35007,0,0.000885,0,0
0:0:30.079,52.3734,6.66723,0,0.000885,0,0
0:0:31.275,54.5441,6.94302,0,0.000885,0,0
0:0:32.490,57.5956,7.33602,0,0.000885,0,0
0:0:33.689,59.4727,7.57044,0,0.000885,0,0
0:0:34.883,61.5234,7.83244,0,0.000885,0,0
0:0:36.079,63.9298,8.14271,0,0.000885,0,0
0:0:37.286,66.8034,8.50813,0,0.000885,0,0
0:0:38.488,68.5604,8.72876,0,0.000885,0,0
0:0:39.685,71.4384,9.09418,0,0.000885,0,0
0:0:40.877,73.6047,9.36998,0,0.000885,0,0
0:0:42.080,75.9534,9.67334,0,0.000885,0,0
0:0:43.295,78.1819,9.95603,0,0.000885,0,0
0:0:44.486,80.4683,10.2456,0,0.000885,0,0
0:0:45.679,83.1061,10.5835,0,0.000885,0,0
0:0:46.888,85.8062,10.9282,0,0.000885,0,0
0:0:48.092,87.3898,11.1281,0,0.000885,0,0
0:0:49.286,90.2633,11.4936,0,0.000885,0,0
0:0:50.481,92.4919,11.7762,0,0.000885,0,0
0:0:51.677,94.8361,12.0727,0,0.000885,0,0
0:0:52.892,97.3582,12.3968,0,0.000885,0,0
0:0:54.089,99.8225,12.707,0,0.000885,0,0
0:0:55.277,102.287,13.0242,0,0.000885,0,0
0:0:56.470,104.458,13.3,0,0.000885,0,0
0:0:57.685,106.393,13.5482,0,0.000885,0,0
0:0:58.885,109.618,13.955,0,0.000885,0,0
0:1:0.076,110.32,14.0446,0,0.000885,0,0
0:1:1.273,113.781,14.4859,0,0.000885,0,0
0:1:2.488,116.303,14.8099,0,0.000885,0,0
0:1:3.682,118.18,15.0444,0,0.000885,0,0
0:1:4.878,120.587,15.3546,0,0.000885,0,0
0:1:6.068,123.282,15.6994,0,0.000885,0,0
0:1:7.282,125.689,16.0027,0,0.000885,0,0
0:1:8.486,128.269,16.3337,0,0.000885,0,0
0:1:9.674,130.088,16.5612,0,0.000885,0,0
0:1:10.869,133.02,16.9335,0,0.000885,0,0
0:1:12.072,134.661,17.1473,0,0.000885,0,0
0:1:13.277,137.299,17.4851,0,0.000885,0,0
0:1:14.475,139.941,17.8161,0,0.000885,0,0
0:1:15.667,142.17,18.0987,0,0.000885,0,0
0:1:16.869,144.34,18.3745,0,0.000885,0,0
0:1:18.080,146.978,18.7124,0,0.000885,0,0
0:1:19.273,149.029,18.9744,0,0.000885,0,0
0:1:20.467,151.613,19.3053,0,0.000885,0,0
0:1:21.662,153.779,19.5811,0,0.000885,0,0
0:1:22.875,156.364,19.9121,0,0.000885,0,0
0:1:24.073,158.824,20.2223,0,0.000885,0,0
0:1:25.266,160.879,20.4843,0,0.000885,0,0
0:1:26.466,163.107,20.767,0,0.000885,0,0
0:1:27.678,165.514,21.0704,0,0.000885,0,0
0:1:28.872,167.916,21.3806,0,0.000885,0,0
0:1:30.065,170.029,21.6495,0,0.000885,0,0
0:1:31.261,172.667,21.9874,0,0.000885,0,0
0:1:32.474,175.189,22.3045,0,0.000885,0,0
0:1:33.673,177.008,22.539,0,0.000885,0,0
0:1:34.867,179.53,22.8561,0,0.000885,0,0
0:1:36.058,182.284,23.2078,0,0.000885,0,0
0:1:37.272,183.752,23.3939,0,0.000885,0,0
0:1:38.473,186.509,23.7455,0,0.000885,0,0
0:1:39.663,188.738,24.0282,0,0.000885,0,0
0:1:40.869,191.727,24.4143,0,0.000885,0,0
0:1:42.067,194.076,24.7108,0,0.000885,0,0
0:1:43.262,196.184,24.9797,0,0.000885,0,0
0:1:44.469,198.769,25.3107,0,0.000885,0,0
0:1:45.664,200.877,25.5795,0,0.000885,0,0
0:1:46.873,203.342,25.8898,0,0.000885,0,0
0:1:48.078,205.628,26.1794,0,0.000885,0,0
0:1:49.263,207.505,26.4207,0,0.000885,0,0
0:1:50.464,210.672,26.8206,0,0.000885,0,0
0:1:51.669,212.314,27.0343,0,0.000885,0,0
0:1:52.871,214.778,27.3446,0,0.000885,0,0
0:1:54.062,217.3,27.6687,0,0.000885,0,0
0:1:55.258,219.471,27.9445,0,0.000885,0,0
0:1:56.452,222.051,28.2754,0,0.000885,0,0
0:1:57.655,223.986,28.5167,0,0.000885,0,0
0:1:58.853,226.566,28.8477,0,0.000885,0,0
0:2:0.041,229.088,29.1717,0,0.000885,0,0
0:2:1.223,231.61,29.4889,0,0.000885,0,0
0:2:2.426,233.429,29.7233,0,0.000885,0,0
0:2:3.619,236.361,30.0956,0,0.000885,0,0
0:2:4.805,238.238,30.33,0,0.000885,0,0
0:2:5.989,240.876,30.6679,0,0.000885,0,0
0:2:7.197,243.34,30.985,0,0.000885,0,0
0:2:8.388,244.981,31.1919,0,0.000885,0,0
0:2:9.572,247.855,31.5573,0,0.000885,0,0
0:2:10.770,250.613,31.9089,0,0.000885,0,0
0:2:11.976,252.548,32.1571,0,0.000885,0,0
0:2:13.172,254.251,32.3709,0,0.000885,0,0
0:2:14.369,257.067,32.7294,0,0.000885,0,0
0:2:15.562,259.763,33.0742,0,0.000885,0,0
0:2:16.762,261.934,33.3499,0,0.000885,0,0
0:2:17.968,263.575,33.5568,0,0.000885,0,0
0:2:19.172,266.155,33.8877,0,0.000885,0,0
0:2:20.362,269.206,34.2738,0,0.000885,0,0
0:2:21.571,270.963,34.5014,0,0.000885,0,0
0:2:22.768,273.37,34.8047,0,0.000885,0,0
0:2:23.950,276.07,35.1495,0,0.000885,0,0
0:2:25.149,278.881,35.508,0,0.000885,0,0
0:2:26.363,280.643,35.7355,0,0.000885,0,0
0:2:27.569,282.871,36.0182,0,0.000885,0,0
0:2:28.763,284.984,36.2871,0,0.000885,0,0
0:2:29.969,287.738,36.6387,0,0.000885,0,0
0:2:31.170,290.38,36.9697,0,0.000885,0,0
0:2:32.376,292.96,37.3006,0,0.000885,0,0
0:2:33.567,294.895,37.5488,0,0.000885,0,0
0:2:34.769,297.301,37.8522,0,0.000885,0,0
0:2:35.969,299.174,38.0935,0,0.000885,0,0
0:2:37.175,301.932,38.4452,0,0.000885,0,0
0:2:38.370,304.396,38.7554,0,0.000885,0,0
0:2:39.568,306.683,39.045,0,0.000885,0,0
0:2:40.772,308.853,39.3277,0,0.000885,0,0
0:2:41.975,311.669,39.6862,0,0.000885,0,0
0:2:43.176,313.546,39.9206,0,0.000885,0,0
0:2:44.371,315.775,40.2033,0,0.000885,0,0
0:2:45.573,318.591,40.5619,0,0.000885,0,0
0:2:46.780,321.228,40.8997,0,0.000885,0,0
0:2:47.979,323.163,41.1479,0,0.000885,0,0
0:2:49.172,325.628,41.4582,0,0.000885,0,0
0:2:50.371,327.972,41.7615,0,0.000885,0,0
0:2:51.576,330.436,42.0718,0,0.000885,0,0
0:2:52.781,332.723,42.3614,0,0.000885,0,0
0:2:53.966,335.013,42.6579,0,0.000885,0,0
0:2:55.170,337.006,42.9061,0,0.000885,0,0
0:2:56.373,339.586,43.237,0,0.000885,0,0
0:2:57.578,342.518,43.6093,0,0.000885,0,0
0:2:58.777,344.043,43.8024,0,0.000885,0,0
0:2:59.967,346.975,44.1816,0,0.000885,0,0
0:3:1.176,349.323,44.4781,0,0.000885,0,0
0:3:2.381,351.552,44.7608,0,0.000885,0,0
0:3:3.578,353.954,45.0641,0,0.000885,0,0
0:3:4.776,355.893,45.3123,0,0.000885,0,0
0:3:5.977,358.411,45.6364,0,0.000885,0,0
0:3:7.180,360.702,45.926,0,0.000885,0,0
0:3:8.375,363.224,46.25,0,0.000885,0,0
0:3:9.577,365.92,46.5879,0,0.000885,0,0
0:3:10.757,367.681,46.8154,0,0.000885,0,0
0:3:11.954,370.083,47.1188,0,0.000885,0,0
0:3:13.155,372.663,47.4497,0,0.000885,0,0
0:3:14.356,374.54,47.691,0,0.000885,0,0
0:3:15.574,377.298,48.0358,0,0.000885,0,0
0:3:16.781,379.705,48.346,0,0.000885,0,0
0:3:17.975,381.933,48.6287,0,0.000885,0,0
0:3:19.174,384.22,48.9183,0,0.000885,0,0
0:3:20.377,386.977,49.2699,0,0.000885,0,0
0:3:21.580,388.677,49.4906,0,0.000885,0,0
0:3:22.783,392.022,49.9111,0,0.000885,0,0
0:3:23.977,393.605,50.118,0,0.000885,0,0
0:3:25.167,396.127,50.4351,0,0.000885,0,0
0:3:26.354,398.65,50.7592,0,0.000885,0,0
0:3:27.560,400.758,51.0281,0,0.000885,0,0
0:3:28.748,403.516,51.3797,0,0.000885,0,0
0:3:29.936,405.273,51.6004,0,0.000885,0,0
0:3:31.123,407.795,51.9244,0,0.000885,0,0
0:3:32.328,410.144,52.2209,0,0.000885,0,0
0:3:33.515,412.488,52.5174,0,0.000885,0,0
0:3:34.703,415.246,52.869,0,0.000885,0,0
0:3:35.893,417.417,53.1448,0,0.000885,0,0
0:3:37.096,419.232,53.3792,0,0.000885,0,0
0:3:38.293,422.461,53.786,0,0.000885,0,0
0:3:39.475,424.276,54.0204,0,0.000885,0,0
0:3:40.678,426.389,54.2893,0,0.000885,0,0
0:3:41.885,428.733,54.5858,0,0.000885,0,0
0:3:43.086,431.611,54.9512,0,0.000885,0,0
0:3:44.270,433.777,55.2339,0,0.000885,0,0
0:3:45.479,435.89,55.4959,0,0.000885,0,0
0:3:46.678,438.177,55.7924,0,0.000885,0,0
0:3:47.882,440.819,56.1233,0,0.000885,0,0
0:3:49.077,442.927,56.3922,0,0.000885,0,0
0:3:50.281,445.507,56.7232,0,0.000885,0,0
0:3:51.479,448.265,57.0748,0,0.000885,0,0
0:3:52.684,450.027,57.3023,0,0.000885,0,0
0:3:53.882,452.077,57.5574,0,0.000885,0,0
0:3:55.081,454.893,57.916,0,0.000885,0,0
0:3:56.281,457.299,58.2262,0,0.000885,0,0
0:3:57.487,459.114,58.4538,0,0.000885,0,0
0:3:58.684,461.988,58.8192,0,0.000885,0,0
0:3:59.884,464.394,59.1294,0,0.000885,0,0
0:4:1.071,466.801,59.4328,0,0.000885,0,0
0:4:2.280,469.029,59.7155,0,0.000885,0,0
0:4:3.478,471.316,60.012,0,0.000885,0,0
0:4:4.676,473.718,60.3153,0,0.000885,0,0
0:4:5.879,475.537,60.5498,0,0.000885,0,0
0:4:7.082,478.411,60.9152,0,0.000885,0,0
0:4:8.280,480.759,61.2117,0,0.000885,0,0
0:4:9.480,482.636,61.453,0,0.000885,0,0
0:4:10.678,485.568,61.8253,0,0.000885,0,0
0:4:11.884,487.854,62.1149,0,0.000885,0,0
0:4:13.079,489.322,62.301,0,0.000885,0,0
0:4:14.284,492.605,62.7216,0,0.000885,0,0
0:4:15.480,494.718,62.9905,0,0.000885,0,0
0:4:16.680,496.826,63.2594,0,0.000885,0,0
0:4:17.882,490.67,62.4734,0,0.000885,0,0
0:4:19.075,495.011,63.025,0,0.000885,0,0
0:4:20.268,500.932,63.7834,0,0.000885,0,0
0:4:21.474,500.874,63.7765,0,0.000885,0,0
0:4:22.670,498.646,63.4869,0,0.000885,0,0
0:4:23.880,438.177,55.7924,0,0.000885,0,0
0:4:25.084,417.826,53.1999,0,0.000885,0,0
0:4:26.278,395.714,50.3869,0,0.000885,0,0
0:4:27.479,384.749,48.9873,0,0.000885,0,0
0:4:28.684,371.2,47.2636,0,0.000885,0,0
0:4:29.888,361.347,46.0087,0,0.000885,0,0
0:4:30.940,352.019,44.8228,0,0.000885,0,0