File: DataFile2021-06-29_070411.csv
Test ID:,Date Tested:,Time:,Test Type:,Diameter Avg. (mm):,Cyl. Corr. Factor:,Height (mm):,Age (days):,Weight (kN):,Break Type:,Ramp Rate (MPa/s):,Load at Break (kN):,Stress at Break (MPa):
12,6/29/2021,07:04,Cylinder,100,1,200,0,3.6,3,0.25,694.98,88.49
Sample Time,Load (kN),Stress (MPa),Long. Strain,Trans. Strain,Chan1 Deflection (mm),Chan2 Deflection (mm)
0:0:16.967,5.04428,0.641212,0,0.000885,0,0
0:0:18.457,10.0307,1.27553,0,0.000885,0,0
0:0:19.946,10.6179,1.35137,0,0.000885,0,0
0:0:21.435,12.4906,1.59269,0,0.000885,0,0
0:0:22.939,16.7164,2.13048,0,0.000885,0,0
0:0:24.447,20.235,2.57864,0,0.000885,0,0
0:0:25.940,22.8728,2.90959,0,0.000885,0,0
0:0:27.430,25.7463,3.27501,0,0.000885,0,0
0:0:28.945,28.4464,3.61975,0,0.000885,0,0
0:0:30.439,31.9649,4.06791,0,0.000885,0,0
0:0:31.930,34.8963,4.44022,0,0.000885,0,0
0:0:33.447,36.7156,4.67465,0,0.000885,0,0
0:0:34.941,40.4121,5.14349,0,0.000885,0,0
0:0:36.435,43.6949,5.56407,0,0.000885,0,0
0:0:37.943,46.1014,5.86744,0,0.000885,0,0
0:0:39.446,49.2685,6.27423,0,0.000885,0,0
0:0:40.939,51.9641,6.61897,0,0.000885,0,0
0:0:42.435,55.0734,7.01197,0,0.000885,0,0
0:0:43.950,58.2406,7.41876,0,0.000885,0,0
0:0:45.444,61.2298,7.79797,0,0.000885,0,0
0:0:46.936,64.2813,8.18408,0,0.000885,0,0
0:0:48.445,67.2705,8.56329,0,0.000885,0,0
0:0:49.944,69.7926,8.88734,0,0.000885,0,0
0:0:51.437,72.6083,9.24587,0,0.000885,0,0
0:0:52.945,75.424,9.6044,0,0.000885,0,0
0:0:54.446,78.8848,10.0457,0,0.000885,0,0
0:0:55.936,81.5226,10.3766,0,0.000885,0,0
0:0:57.432,84.3383,10.7351,0,0.000885,0,0
0:0:58.946,87.4476,11.135,0,0.000885,0,0
0:1:0.439,90.2055,11.4867,0,0.000885,0,0
0:1:1.932,93.3726,11.8866,0,0.000885,0,0
0:1:3.440,96.4819,12.2865,0,0.000885,0,0
0:1:4.938,99.4711,12.6657,0,0.000885,0,0
0:1:6.431,102.523,13.0518,0,0.000885,0,0
0:1:7.942,105.218,13.3965,0,0.000885,0,0
0:1:9.440,107.976,13.7481,0,0.000885,0,0
0:1:10.931,110.965,14.1274,0,0.000885,0,0
0:1:12.428,114.546,14.5824,0,0.000885,0,0
0:1:13.940,116.423,14.8237,0,0.000885,0,0
0:1:15.434,119.822,15.2581,0,0.000885,0,0
0:1:16.926,122.58,15.6097,0,0.000885,0,0
0:1:18.435,125.631,15.9958,0,0.000885,0,0
0:1:19.935,128.563,16.3682,0,0.000885,0,0
0:1:21.425,131.552,16.7474,0,0.000885,0,0
0:1:22.925,134.194,17.0852,0,0.000885,0,0
0:1:24.433,137.944,17.5609,0,0.000885,0,0
0:1:25.926,140.702,17.9126,0,0.000885,0,0
0:1:27.426,143.695,18.2987,0,0.000885,0,0
0:1:28.935,146.569,18.6641,0,0.000885,0,0
0:1:30.427,149.029,18.9744,0,0.000885,0,0
0:1:31.920,151.844,19.3329,0,0.000885,0,0
0:1:33.430,155.19,19.7604,0,0.000885,0,0
0:1:34.929,157.947,20.112,0,0.000885,0,0
0:1:36.420,160.527,20.4361,0,0.000885,0,0
0:1:37.933,164.575,20.9532,0,0.000885,0,0
0:1:39.440,167.387,21.3117,0,0.000885,0,0
0:1:40.930,169.615,21.5944,0,0.000885,0,0
0:1:42.432,172.96,22.0219,0,0.000885,0,0
0:1:43.937,176.012,22.408,0,0.000885,0,0
0:1:45.430,178.885,22.7734,0,0.000885,0,0
0:1:46.921,181.639,23.125,0,0.000885,0,0
0:1:48.433,184.69,23.518,0,0.000885,0,0
0:1:49.931,187.212,23.8352,0,0.000885,0,0
0:1:51.424,190.202,24.2144,0,0.000885,0,0
0:1:52.923,193.195,24.6005,0,0.000885,0,0
0:1:54.420,196.536,25.0211,0,0.000885,0,0
0:1:55.907,199,25.3382,0,0.000885,0,0
0:1:57.409,202.287,25.7588,0,0.000885,0,0
0:1:58.915,205.161,26.1242,0,0.000885,0,0
0:2:0.408,208.266,26.5172,0,0.000885,0,0
0:2:1.919,211.317,26.9033,0,0.000885,0,0
0:2:3.415,213.839,27.2274,0,0.000885,0,0
0:2:4.915,216.891,27.6135,0,0.000885,0,0
0:2:6.427,220.174,28.0341,0,0.000885,0,0
0:2:7.925,222.46,28.3237,0,0.000885,0,0
0:2:9.421,225.569,28.7236,0,0.000885,0,0
0:2:10.902,229.03,29.1579,0,0.000885,0,0
0:2:12.403,231.374,29.4613,0,0.000885,0,0
0:2:13.911,234.835,29.9026,0,0.000885,0,0
0:2:15.413,237.651,30.2611,0,0.000885,0,0
0:2:16.914,240.818,30.661,0,0.000885,0,0
0:2:18.417,243.398,30.9919,0,0.000885,0,0
0:2:19.923,246.214,31.3505,0,0.000885,0,0
0:2:21.413,249.438,31.7573,0,0.000885,0,0
0:2:22.915,252.196,32.1089,0,0.000885,0,0
0:2:24.411,255.657,32.5501,0,0.000885,0,0
0:2:25.924,258.064,32.8604,0,0.000885,0,0
0:2:27.413,261.462,33.2879,0,0.000885,0,0
0:2:28.918,264.22,33.6395,0,0.000885,0,0
0:2:30.409,266.978,33.9912,0,0.000885,0,0
0:2:31.903,270.439,34.4324,0,0.000885,0,0
0:2:33.410,273.018,34.7634,0,0.000885,0,0
0:2:34.914,275.541,35.0805,0,0.000885,0,0
0:2:36.416,279.001,35.5218,0,0.000885,0,0
0:2:37.918,281.875,35.8872,0,0.000885,0,0
0:2:39.423,284.046,36.163,0,0.000885,0,0
0:2:40.911,287.506,36.6043,0,0.000885,0,0
0:2:42.422,290.086,36.9352,0,0.000885,0,0
0:2:43.929,293.663,37.3903,0,0.000885,0,0
0:2:45.418,296.421,37.7419,0,0.000885,0,0
0:2:46.929,299.997,38.197,0,0.000885,0,0
0:2:48.434,302.813,38.5555,0,0.000885,0,0
0:2:49.915,305.744,38.9278,0,0.000885,0,0
0:2:51.428,308.618,39.2932,0,0.000885,0,0
0:2:52.932,311.963,39.7207,0,0.000885,0,0
0:2:54.425,314.133,39.9965,0,0.000885,0,0
0:2:55.916,317.243,40.3895,0,0.000885,0,0
0:2:57.417,320.054,40.748,0,0.000885,0,0
0:2:58.924,322.87,41.1065,0,0.000885,0,0
0:3:0.412,325.743,41.472,0,0.000885,0,0
0:3:1.913,328.679,41.8512,0,0.000885,0,0
0:3:3.413,331.433,42.2028,0,0.000885,0,0
0:3:4.931,334.893,42.6372,0,0.000885,0,0
0:3:6.421,338.296,43.0715,0,0.000885,0,0
0:3:7.929,340.992,43.4163,0,0.000885,0,0
0:3:9.428,343.75,43.7679,0,0.000885,0,0
0:3:10.929,346.45,44.1127,0,0.000885,0,0
0:3:12.422,349.617,44.5126,0,0.000885,0,0
0:3:13.929,352.37,44.8642,0,0.000885,0,0
0:3:15.430,354.835,45.1813,0,0.000885,0,0
0:3:16.921,357.766,45.5537,0,0.000885,0,0
0:3:18.431,361.347,46.0087,0,0.000885,0,0
0:3:19.930,364.514,46.4086,0,0.000885,0,0
0:3:21.419,367.739,46.8223,0,0.000885,0,0
0:3:22.929,370.319,47.1532,0,0.000885,0,0
0:3:24.427,373.019,47.4911,0,0.000885,0,0
0:3:25.938,376.008,47.8772,0,0.000885,0,0
0:3:27.424,379.233,48.284,0,0.000885,0,0
0:3:28.927,381.697,48.6011,0,0.000885,0,0
0:3:30.429,384.629,48.9735,0,0.000885,0,0
0:3:31.932,388.09,49.4147,0,0.000885,0,0
0:3:33.433,390.847,49.7664,0,0.000885,0,0
0:3:34.930,393.427,50.0904,0,0.000885,0,0
0:3:36.417,396.301,50.4558,0,0.000885,0,0
0:3:37.918,399.468,50.8626,0,0.000885,0,0
0:3:39.425,402.577,51.2556,0,0.000885,0,0
0:3:40.925,405.393,51.6142,0,0.000885,0,0
0:3:42.429,408.676,52.0347,0,0.000885,0,0
0:3:43.936,412.021,52.4622,0,0.000885,0,0
0:3:45.430,414.307,52.7518,0,0.000885,0,0
0:3:46.911,416.945,53.0896,0,0.000885,0,0
0:3:48.413,420.17,53.4964,0,0.000885,0,0
0:3:49.901,423.337,53.9032,0,0.000885,0,0
0:3:51.382,425.802,54.2135,0,0.000885,0,0
0:3:52.873,428.733,54.5858,0,0.000885,0,0
0:3:54.371,432.02,55.0064,0,0.000885,0,0
0:3:55.851,435.009,55.3856,0,0.000885,0,0
0:3:57.340,437.474,55.7027,0,0.000885,0,0
0:3:58.839,440.174,56.0475,0,0.000885,0,0
0:4:0.332,443.75,56.5025,0,0.000885,0,0
0:4:1.832,446.33,56.8266,0,0.000885,0,0
0:4:3.334,449.146,57.1851,0,0.000885,0,0
0:4:4.831,452.664,57.6333,0,0.000885,0,0
0:4:6.320,455.244,57.9642,0,0.000885,0,0
0:4:7.822,458.589,58.3917,0,0.000885,0,0
0:4:9.328,461.699,58.7847,0,0.000885,0,0
0:4:10.819,464.159,59.1019,0,0.000885,0,0
0:4:12.327,467.032,59.4673,0,0.000885,0,0
0:4:13.836,470.262,59.8741,0,0.000885,0,0
0:4:15.336,473.193,60.2464,0,0.000885,0,0
0:4:16.837,475.715,60.5704,0,0.000885,0,0
0:4:18.341,478.94,60.9772,0,0.000885,0,0
0:4:19.838,481.756,61.3358,0,0.000885,0,0
0:4:21.338,484.451,61.6805,0,0.000885,0,0
0:4:22.830,488.148,62.1562,0,0.000885,0,0
0:4:24.337,490.612,62.4665,0,0.000885,0,0
0:4:25.838,493.601,62.8457,0,0.000885,0,0
0:4:27.327,496.711,63.2456,0,0.000885,0,0
0:4:28.835,499.469,63.5972,0,0.000885,0,0
0:4:30.325,502.871,64.0247,0,0.000885,0,0
0:4:31.807,505.567,64.3695,0,0.000885,0,0
0:4:33.308,508.205,64.7073,0,0.000885,0,0
0:4:34.795,510.963,65.0589,0,0.000885,0,0
0:4:36.277,514.13,65.4588,0,0.000885,0,0
0:4:37.779,517.355,65.8725,0,0.000885,0,0
0:4:39.264,520.291,66.2448,0,0.000885,0,0
0:4:40.748,522.693,66.5482,0,0.000885,0,0
0:4:42.238,525.976,66.9688,0,0.000885,0,0
0:4:43.739,528.969,67.348,0,0.000885,0,0
0:4:45.241,531.371,67.6583,0,0.000885,0,0
0:4:46.723,534.894,68.1064,0,0.000885,0,0
0:4:48.230,537.474,68.4305,0,0.000885,0,0
0:4:49.732,540.641,68.8373,0,0.000885,0,0
0:4:51.232,543.395,69.1889,0,0.000885,0,0
0:4:52.724,546.504,69.5819,0,0.000885,0,0
0:4:54.216,549.084,69.9128,0,0.000885,0,0
0:4:55.698,552.487,70.3472,0,0.000885,0,0
0:4:57.187,555.125,70.6782,0,0.000885,0,0
0:4:58.684,558.176,71.0712,0,0.000885,0,0
0:5:0.168,560.756,71.3952,0,0.000885,0,0
0:5:1.650,563.865,71.7951,0,0.000885,0,0
0:5:3.152,567.211,72.2226,0,0.000885,0,0
0:5:4.642,569.964,72.5673,0,0.000885,0,0
0:5:6.130,573.131,72.9741,0,0.000885,0,0
0:5:7.630,575.773,73.312,0,0.000885,0,0
0:5:9.126,579.465,73.7808,0,0.000885,0,0
0:5:10.610,581.636,74.0566,0,0.000885,0,0
0:5:12.100,584.688,74.4427,0,0.000885,0,0
0:5:13.599,587.855,74.8495,0,0.000885,0,0
0:5:15.086,590.261,75.1529,0,0.000885,0,0
0:5:16.578,593.255,75.5321,0,0.000885,0,0
0:5:18.088,596.249,75.9182,0,0.000885,0,0
0:5:19.583,599.416,76.3181,0,0.000885,0,0
0:5:21.071,602,76.649,0,0.000885,0,0
0:5:22.570,605.172,77.0558,0,0.000885,0,0
0:5:24.073,607.93,77.4005,0,0.000885,0,0
0:5:25.564,610.981,77.7935,0,0.000885,0,0
0:5:27.062,613.739,78.1452,0,0.000885,0,0
0:5:28.566,616.675,78.5175,0,0.000885,0,0
0:5:30.054,619.726,78.9036,0,0.000885,0,0
0:5:31.544,622.426,79.2483,0,0.000885,0,0
0:5:33.056,625.714,79.6689,0,0.000885,0,0
0:5:34.549,628.943,80.0826,0,0.000885,0,0
0:5:36.036,631.879,80.4549,0,0.000885,0,0
0:5:37.535,634.05,80.7307,0,0.000885,0,0
0:5:39.036,637.515,81.172,0,0.000885,0,0
0:5:40.535,640.388,81.5374,0,0.000885,0,0
0:5:42.045,643.382,81.9166,0,0.000885,0,0
0:5:43.558,646.376,82.2958,0,0.000885,0,0
0:5:45.046,649.311,82.675,0,0.000885,0,0
0:5:46.543,651.776,82.9853,0,0.000885,0,0
0:5:48.057,655.241,83.4266,0,0.000885,0,0
0:5:49.548,657.999,83.7782,0,0.000885,0,0
0:5:51.048,661.17,84.185,0,0.000885,0,0
0:5:52.548,663.635,84.4953,0,0.000885,0,0
0:5:54.051,666.922,84.9158,0,0.000885,0,0
0:5:55.538,669.738,85.2744,0,0.000885,0,0
0:5:57.036,673.025,85.6949,0,0.000885,0,0
0:5:58.552,675.489,86.0052,0,0.000885,0,0
0:6:0.038,678.309,86.3637,0,0.000885,0,0
0:6:1.536,681.183,86.7292,0,0.000885,0,0
0:6:3.048,681.419,86.7636,0,0.000885,0,0
0:6:4.552,684.884,87.2049,0,0.000885,0,0
0:6:6.045,689.875,87.8392,0,0.000885,0,0
0:6:7.559,693.807,88.3356,0,0.000885,0,0
0:6:9.059,690.226,87.8806,0,0.000885,0,0
0:6:10.539,497.24,63.3077,0,0.000885,0,0
0:6:12.036,498.997,63.5352,0,0.000885,0,0
0:6:13.541,497.182,63.3008,0,0.000885,0,0
0:6:14.968,488.908,62.2528,0,0.000885,0,0