File: DataFile2021-06-29_044426.csv
Test ID:,Date Tested:,Time:,Test Type:,Width (mm):,Depth (mm):,Height (mm):,Age (days):,Weight (kN):,Ramp Rate (MPa/s):,Load at Break (kN):,Stress at Break (MPa):
12,6/29/2021,04:44,Cube,100,100,100,7,8.37,0.01,38.24,3.83
Sample Time,Load (kN),Stress (MPa),Long. Strain,Trans. Strain,Chan1 Deflection (mm),Chan2 Deflection (mm)
0:0:14.244,9.67933,0.965266,0,0.000885,0,0
0:0:14.634,10.3821,1.04111,0,0.000885,0,0
0:0:15.024,10.3243,1.03421,0,0.000885,0,0
0:0:15.434,10.1464,1.01353,0,0.000885,0,0
0:0:15.836,10.5556,1.0549,0,0.000885,0,0
0:0:16.241,11.085,1.11006,0,0.000885,0,0
0:0:16.639,11.1428,1.11695,0,0.000885,0,0
0:0:17.037,11.3786,1.13763,0,0.000885,0,0
0:0:17.438,12.0235,1.19969,0,0.000885,0,0
0:0:17.840,12.2015,1.22037,0,0.000885,0,0
0:0:18.230,12.1392,1.21348,0,0.000885,0,0
0:0:18.641,13.3135,1.33069,0,0.000885,0,0
0:0:19.041,13.6649,1.36516,0,0.000885,0,0
0:0:19.443,13.9007,1.39274,0,0.000885,0,0
0:0:19.837,14.1364,1.41343,0,0.000885,0,0
0:0:20.235,14.5457,1.45479,0,0.000885,0,0
0:0:20.631,15.3063,1.53064,0,0.000885,0,0
0:0:21.029,16.0136,1.59958,0,0.000885,0,0
0:0:21.426,16.5963,1.66164,0,0.000885,0,0
0:0:21.827,17.0678,1.7099,0,0.000885,0,0
0:0:22.225,16.9522,1.69611,0,0.000885,0,0
0:0:22.637,17.5972,1.75816,0,0.000885,0,0
0:0:23.038,18.4735,1.84779,0,0.000885,0,0
0:0:23.430,18.3578,1.83401,0,0.000885,0,0
0:0:23.831,18.8871,1.88916,0,0.000885,0,0
0:0:24.230,19.0028,1.90295,0,0.000885,0,0
0:0:24.641,19.7056,1.9719,0,0.000885,0,0
0:0:25.038,19.6478,1.96501,0,0.000885,0,0
0:0:25.437,20.4084,2.04085,0,0.000885,0,0
0:0:25.832,20.7643,2.07532,0,0.000885,0,0
0:0:26.245,21.0534,2.1029,0,0.000885,0,0
0:0:26.636,21.1735,2.11669,0,0.000885,0,0
0:0:27.039,21.7029,2.17185,0,0.000885,0,0
0:0:27.443,22.2278,2.22011,0,0.000885,0,0
0:0:27.832,22.7571,2.27527,0,0.000885,0,0
0:0:28.243,23.1663,2.31664,0,0.000885,0,0
0:0:28.645,23.6378,2.3649,0,0.000885,0,0
0:0:29.038,23.3443,2.33732,0,0.000885,0,0
0:0:29.439,23.5177,2.35111,0,0.000885,0,0
0:0:29.839,23.9893,2.39938,0,0.000885,0,0
0:0:30.238,24.3407,2.43385,0,0.000885,0,0
0:0:30.632,25.3949,2.53727,0,0.000885,0,0
0:0:31.031,25.9242,2.59243,0,0.000885,0,0
0:0:31.443,26.5114,2.64759,0,0.000885,0,0
0:0:31.843,26.5114,2.64759,0,0.000885,0,0
0:0:32.242,27.0363,2.70274,0,0.000885,0,0
0:0:32.645,27.6235,2.7648,0,0.000885,0,0
0:0:33.040,27.8592,2.78548,0,0.000885,0,0
0:0:33.441,28.5042,2.84753,0,0.000885,0,0
0:0:33.839,28.9713,2.8958,0,0.000885,0,0
0:0:34.241,29.2648,2.92338,0,0.000885,0,0
0:0:34.638,29.4428,2.94406,0,0.000885,0,0
0:0:35.040,30.0299,3.00611,0,0.000885,0,0
0:0:35.436,30.3235,3.03369,0,0.000885,0,0
0:0:35.830,30.7328,3.07506,0,0.000885,0,0
0:0:36.231,30.7906,3.08196,0,0.000885,0,0
0:0:36.637,30.9685,3.09575,0,0.000885,0,0
0:0:37.040,31.7292,3.17159,0,0.000885,0,0
0:0:37.442,31.8493,3.18538,0,0.000885,0,0
0:0:37.840,32.3742,3.24054,0,0.000885,0,0
0:0:38.231,33.077,3.30948,0,0.000885,0,0
0:0:38.633,33.1393,3.31638,0,0.000885,0,0
0:0:39.038,33.6641,3.36464,0,0.000885,0,0
0:0:39.438,33.8999,3.39222,0,0.000885,0,0
0:0:39.839,34.367,3.43359,0,0.000885,0,0
0:0:40.238,34.8963,3.48875,0,0.000885,0,0
0:0:40.632,35.3055,3.53012,0,0.000885,0,0
0:0:41.031,35.6614,3.56459,0,0.000885,0,0
0:0:41.442,35.7192,3.57148,0,0.000885,0,0
0:0:41.843,36.3642,3.63354,0,0.000885,0,0
0:0:42.245,36.6,3.66112,0,0.000885,0,0
0:0:42.639,37.067,3.70938,0,0.000885,0,0
0:0:43.040,37.5385,3.75075,0,0.000885,0,0
0:0:43.437,37.89,3.79212,0,0.000885,0,0
0:0:43.827,37.9478,3.79212,0,0.000885,0,0
0:0:44.230,38.2992,3.82659,0,0.000885,0,0
0:0:44.632,38.2414,3.82659,0,0.000885,0,0
0:0:45.030,38.0634,3.80591,0,0.000885,0,0
0:0:45.427,37.9478,3.79212,0,0.000885,0,0
0:0:45.824,37.0092,3.70248,0,0.000885,0,0
0:0:46.221,36.3064,3.63354,0,0.000885,0,0
0:0:46.632,35.777,3.57838,0,0.000885,0,0
0:0:47.044,35.3055,3.53012,0,0.000885,0,0
0:0:47.443,34.0778,3.40601,0,0.000885,0,0
0:0:47.845,32.2007,3.21985,0,0.000885,0,0
0:0:48.239,30.6749,3.06817,0,0.000885,0,0
0:0:48.638,28.9134,2.8889,0,0.000885,0,0
0:0:49.047,27.7436,2.77169,0,0.000885,0,0
0:0:49.446,26.9206,2.68896,0,0.000885,0,0
0:0:49.844,25.7463,2.57174,0,0.000885,0,0
0:0:50.243,25.1013,2.50969,0,0.000885,0,0
0:0:50.640,24.9857,2.4959,0,0.000885,0,0
0:0:51.033,24.4563,2.44764,0,0.000885,0,0
0:0:51.439,24.5764,2.45453,0,0.000885,0,0
0:0:51.841,24.6343,2.46143,0,0.000885,0,0
0:0:52.241,24.6921,2.46832,0,0.000885,0,0
0:0:52.639,24.9278,2.4959,0,0.000885,0,0
0:0:53.040,24.6921,2.46832,0,0.000885,0,0
0:0:53.443,25.1591,2.51659,0,0.000885,0,0
0:0:53.844,25.3371,2.53038,0,0.000885,0,0
0:0:54.244,25.2792,2.53038,0,0.000885,0,0
0:0:54.642,25.2792,2.53038,0,0.000885,0,0
0:0:55.039,25.1013,2.50969,0,0.000885,0,0
0:0:55.439,24.6343,2.46143,0,0.000885,0,0
0:0:55.832,24.9278,2.4959,0,0.000885,0,0
0:0:56.229,24.9278,2.4959,0,0.000885,0,0
0:0:56.630,24.6921,2.46832,0,0.000885,0,0
0:0:57.023,24.0471,2.40627,0,0.000885,0,0
0:0:57.423,24.3985,2.44074,0,0.000885,0,0
0:0:57.823,24.1627,2.41317,0,0.000885,0,0
0:0:58.222,24.1627,2.41317,0,0.000885,0,0
0:0:58.633,24.1049,2.41317,0,0.000885,0,0
0:0:59.039,23.5756,2.35801,0,0.000885,0,0
0:0:59.436,23.5756,2.35801,0,0.000885,0,0
0:0:59.834,23.6957,2.3718,0,0.000885,0,0
0:1:0.233,23.6378,2.3649,0,0.000885,0,0
0:1:0.630,23.5756,2.35801,0,0.000885,0,0
0:1:1.026,23.5756,2.35801,0,0.000885,0,0
0:1:1.425,23.5177,2.35111,0,0.000885,0,0
0:1:1.833,23.7535,2.37869,0,0.000885,0,0
0:1:2.235,23.4599,2.34422,0,0.000885,0,0
0:1:2.641,22.9929,2.29595,0,0.000885,0,0
0:1:3.043,22.9929,2.29595,0,0.000885,0,0
0:1:3.440,22.9929,2.29595,0,0.000885,0,0
0:1:3.840,22.8149,2.28216,0,0.000885,0,0
0:1:4.242,22.8728,2.28906,0,0.000885,0,0
0:1:4.644,22.9929,2.29595,0,0.000885,0,0
0:1:5.043,22.6993,2.26838,0,0.000885,0,0
0:1:5.441,22.7571,2.27527,0,0.000885,0,0
0:1:5.835,22.6993,2.26838,0,0.000885,0,0
0:1:6.230,22.4635,2.24769,0,0.000885,0,0
0:1:6.643,22.8149,2.28216,0,0.000885,0,0
0:1:7.042,22.9306,2.29595,0,0.000885,0,0
0:1:7.442,22.6993,2.26838,0,0.000885,0,0
0:1:7.844,22.6993,2.26838,0,0.000885,0,0
0:1:8.235,22.5213,2.25459,0,0.000885,0,0
0:1:8.645,22.9929,2.29595,0,0.000885,0,0
0:1:9.044,22.9929,2.29595,0,0.000885,0,0
0:1:9.447,23.1663,2.31664,0,0.000885,0,0
0:1:9.840,23.1663,2.31664,0,0.000885,0,0
0:1:10.237,23.1663,2.31664,0,0.000885,0,0
0:1:10.634,22.8149,2.28216,0,0.000885,0,0
0:1:11.030,22.8728,2.28906,0,0.000885,0,0
0:1:11.426,22.6993,2.26838,0,0.000885,0,0
0:1:11.835,22.6993,2.26838,0,0.000885,0,0
0:1:12.234,22.8728,2.28906,0,0.000885,0,0
0:1:12.635,22.8149,2.28216,0,0.000885,0,0
0:1:13.036,22.8149,2.28216,0,0.000885,0,0
0:1:13.430,22.6993,2.26838,0,0.000885,0,0
0:1:13.830,23.1663,2.31664,0,0.000885,0,0
0:1:14.250,23.4021,2.33732,0,0.000885,0,0
0:1:14.647,23.6957,2.3718,0,0.000885,0,0
0:1:15.048,24.1049,2.41317,0,0.000885,0,0
0:1:15.445,24.1627,2.41317,0,0.000885,0,0
0:1:15.843,23.9893,2.39938,0,0.000885,0,0
0:1:16.237,24.1049,2.41317,0,0.000885,0,0
0:1:16.643,24.1627,2.41317,0,0.000885,0,0
0:1:17.045,23.7535,2.37869,0,0.000885,0,0
0:1:17.445,24.1627,2.41317,0,0.000885,0,0
0:1:17.844,23.9893,2.39938,0,0.000885,0,0
0:1:18.243,24.1627,2.41317,0,0.000885,0,0
0:1:18.647,24.3407,2.43385,0,0.000885,0,0
0:1:19.048,23.6957,2.3718,0,0.000885,0,0
0:1:19.448,23.0507,2.30285,0,0.000885,0,0
0:1:19.846,22.4635,2.24769,0,0.000885,0,0
0:1:20.244,22.4635,2.24769,0,0.000885,0,0
0:1:20.638,22.3479,2.2339,0,0.000885,0,0
0:1:21.035,21.9342,2.19253,0,0.000885,0,0
0:1:21.444,21.8185,2.17874,0,0.000885,0,0
0:1:21.845,22.4057,2.2408,0,0.000885,0,0
0:1:22.249,22.3479,2.2339,0,0.000885,0,0
0:1:22.637,21.9342,2.19253,0,0.000885,0,0
0:1:23.050,21.7607,2.17874,0,0.000885,0,0
0:1:23.448,21.4671,2.14427,0,0.000885,0,0
0:1:23.842,21.2314,2.12359,0,0.000885,0,0
0:1:24.244,21.2892,2.13048,0,0.000885,0,0
0:1:24.643,20.9956,2.1029,0,0.000885,0,0
0:1:25.042,20.8221,2.08222,0,0.000885,0,0
0:1:25.438,20.9378,2.09601,0,0.000885,0,0
0:1:25.834,20.5864,2.06153,0,0.000885,0,0
0:1:26.231,20.702,2.06843,0,0.000885,0,0
0:1:26.637,20.235,2.02016,0,0.000885,0,0
0:1:27.049,19.9992,1.99948,0,0.000885,0,0
0:1:27.442,19.7634,1.9788,0,0.000885,0,0
0:1:27.844,19.6478,1.96501,0,0.000885,0,0
0:1:28.244,19.8257,1.98569,0,0.000885,0,0
0:1:28.642,19.7634,1.9788,0,0.000885,0,0
0:1:29.042,19.6478,1.96501,0,0.000885,0,0
0:1:29.445,19.412,1.94432,0,0.000885,0,0
0:1:29.845,19.2964,1.93053,0,0.000885,0,0
0:1:30.064,19.412,1.94432,0,0.000885,0,0