File: DataFile2021-07-17_040344.csv
Test ID:,Date Tested:,Time:,Test Type:,Diameter Avg. (mm):,Cyl. Corr. Factor:,Height (mm):,Age (days):,Weight (kN):,Break Type:,Ramp Rate (MPa/s):,Load at Break (kN):,Stress at Break (MPa):
12,7/17/2021,04:03,Cylinder,100,1,200,0,3.6,3,0.25,1186.29,151.04
Sample Time,Load (kN),Stress (MPa),Long. Strain,Trans. Strain,Chan1 Deflection (mm),Chan2 Deflection (mm)
0:0:4.189,5.28004,0.668791,0,0.000885,0,0
0:0:6.775,10.0307,1.27553,0,0.000885,0,0
0:0:9.358,14.9549,1.90295,0,0.000885,0,0
0:0:11.972,19.7634,2.51659,0,0.000885,0,0
0:0:14.562,24.9857,3.17848,0,0.000885,0,0
0:0:17.174,29.852,3.79901,0,0.000885,0,0
0:0:19.769,36.2441,4.61259,0,0.000885,0,0
0:0:22.376,41.0571,5.22623,0,0.000885,0,0
0:0:24.973,46.9777,5.98465,0,0.000885,0,0
0:0:27.577,51.4348,6.55002,0,0.000885,0,0
0:0:30.175,56.0698,7.13607,0,0.000885,0,0
0:0:32.780,61.5234,7.83244,0,0.000885,0,0
0:0:35.387,66.9769,8.52881,0,0.000885,0,0
0:0:37.978,71.6697,9.12866,0,0.000885,0,0
0:0:40.585,76.7719,9.77677,0,0.000885,0,0
0:0:43.178,81.4647,10.3697,0,0.000885,0,0
0:0:45.788,87.3319,11.1212,0,0.000885,0,0
0:0:48.378,91.9625,11.7073,0,0.000885,0,0
0:0:50.987,97.1269,12.3692,0,0.000885,0,0
0:0:53.575,101.7,12.9484,0,0.000885,0,0
0:0:56.185,107.153,13.6447,0,0.000885,0,0
0:0:58.775,112.549,14.3273,0,0.000885,0,0
0:1:1.387,117.478,14.9547,0,0.000885,0,0
0:1:3.976,122.464,15.589,0,0.000885,0,0
0:1:6.589,127.624,16.2509,0,0.000885,0,0
0:1:9.175,132.962,16.9266,0,0.000885,0,0
0:1:11.789,137.886,17.5541,0,0.000885,0,0
0:1:14.378,143.517,18.2711,0,0.000885,0,0
0:1:16.992,148.21,18.871,0,0.000885,0,0
0:1:19.579,153.197,19.5053,0,0.000885,0,0
0:1:22.190,158.415,20.1672,0,0.000885,0,0
0:1:24.780,163.343,20.7946,0,0.000885,0,0
0:1:27.390,168.325,21.4289,0,0.000885,0,0
0:1:29.990,173.547,22.0977,0,0.000885,0,0
0:1:32.588,178.885,22.7734,0,0.000885,0,0
0:1:35.191,183.809,23.4008,0,0.000885,0,0
0:1:37.785,188.854,24.0489,0,0.000885,0,0
0:1:40.384,193.724,24.6625,0,0.000885,0,0
0:1:42.959,199.178,25.3589,0,0.000885,0,0
0:1:45.547,203.871,25.9588,0,0.000885,0,0
0:1:48.139,209.089,26.6207,0,0.000885,0,0
0:1:50.751,214.369,27.2963,0,0.000885,0,0
0:1:53.339,219.586,27.9582,0,0.000885,0,0
0:1:55.951,224.751,28.6132,0,0.000885,0,0
0:1:58.529,229.266,29.1924,0,0.000885,0,0
0:2:1.124,234.541,29.8612,0,0.000885,0,0
0:2:3.693,239.648,30.5093,0,0.000885,0,0
0:2:6.285,245.044,31.1988,0,0.000885,0,0
0:2:8.853,250.088,31.84,0,0.000885,0,0
0:2:11.445,255.421,32.5226,0,0.000885,0,0
0:2:14.041,259.647,33.0604,0,0.000885,0,0
0:2:16.643,265.746,33.8326,0,0.000885,0,0
0:2:19.247,270.087,34.391,0,0.000885,0,0
0:2:21.841,275.421,35.0667,0,0.000885,0,0
0:2:24.446,280.701,35.7424,0,0.000885,0,0
0:2:27.041,285.629,36.3698,0,0.000885,0,0
0:2:29.648,290.847,37.0317,0,0.000885,0,0
0:2:32.238,295.655,37.6454,0,0.000885,0,0
0:2:34.843,301.407,38.3762,0,0.000885,0,0
0:2:37.446,305.864,38.9416,0,0.000885,0,0
0:2:40.051,311.26,39.6311,0,0.000885,0,0
0:2:42.644,316.184,40.2585,0,0.000885,0,0
0:2:45.251,321.228,40.8997,0,0.000885,0,0
0:2:47.852,325.743,41.472,0,0.000885,0,0
0:2:50.454,331.201,42.1683,0,0.000885,0,0
0:2:53.038,336.597,42.8578,0,0.000885,0,0
0:2:55.655,341.815,43.5197,0,0.000885,0,0
0:2:58.248,347.037,44.1885,0,0.000885,0,0
0:3:0.854,351.845,44.7952,0,0.000885,0,0
0:3:3.446,357.477,45.5123,0,0.000885,0,0
0:3:6.046,362.579,46.1673,0,0.000885,0,0
0:3:8.652,367.152,46.7465,0,0.000885,0,0
0:3:11.241,372.196,47.3877,0,0.000885,0,0
0:3:13.839,377.534,48.0702,0,0.000885,0,0
0:3:16.451,382.52,48.7046,0,0.000885,0,0
0:3:19.047,387.445,49.332,0,0.000885,0,0
0:3:21.638,392.96,50.0353,0,0.000885,0,0
0:3:24.244,398.236,50.704,0,0.000885,0,0
0:3:26.849,403.107,51.3246,0,0.000885,0,0
0:3:29.444,408.147,51.9658,0,0.000885,0,0
0:3:32.050,413.72,52.6759,0,0.000885,0,0
0:3:34.653,418.649,53.3034,0,0.000885,0,0
0:3:37.255,424.102,53.9997,0,0.000885,0,0
0:3:39.853,428.324,54.5375,0,0.000885,0,0
0:3:42.454,433.31,55.1718,0,0.000885,0,0
0:3:45.053,439.115,55.9096,0,0.000885,0,0
0:3:47.651,443.986,56.5301,0,0.000885,0,0
0:3:50.253,448.501,57.1024,0,0.000885,0,0
0:3:52.858,453.897,57.7919,0,0.000885,0,0
0:3:55.459,459.056,58.4469,0,0.000885,0,0
0:3:58.054,464.221,59.1088,0,0.000885,0,0
0:4:0.659,469.732,59.8051,0,0.000885,0,0
0:4:3.253,474.247,60.3843,0,0.000885,0,0
0:4:5.856,479.585,61.06,0,0.000885,0,0
0:4:8.458,485.039,61.7563,0,0.000885,0,0
0:4:11.060,490.025,62.3907,0,0.000885,0,0
0:4:13.659,495.011,63.025,0,0.000885,0,0
0:4:16.259,500.407,63.7145,0,0.000885,0,0
0:4:18.858,505.451,64.3557,0,0.000885,0,0
0:4:21.458,510.554,65.0038,0,0.000885,0,0
0:4:24.053,515.246,65.6036,0,0.000885,0,0
0:4:26.654,519.997,66.2104,0,0.000885,0,0
0:4:29.250,525.566,66.9205,0,0.000885,0,0
0:4:31.861,530.904,67.5962,0,0.000885,0,0
0:4:34.454,535.477,68.1823,0,0.000885,0,0
0:4:37.059,541.051,68.8855,0,0.000885,0,0
0:4:39.658,546.21,69.5474,0,0.000885,0,0
0:4:42.262,551.313,70.1955,0,0.000885,0,0
0:4:44.861,556.241,70.8229,0,0.000885,0,0
0:4:47.464,561.637,71.5124,0,0.000885,0,0
0:4:50.062,566.445,72.1192,0,0.000885,0,0
0:4:52.662,570.845,72.6845,0,0.000885,0,0
0:4:55.270,576.592,73.4154,0,0.000885,0,0
0:4:57.863,581.872,74.0842,0,0.000885,0,0
0:5:0.471,587.21,74.7667,0,0.000885,0,0
0:5:3.063,591.903,75.3666,0,0.000885,0,0
0:5:5.673,596.894,76.0009,0,0.000885,0,0
0:5:8.254,602.587,76.7249,0,0.000885,0,0
0:5:10.880,607.458,77.3454,0,0.000885,0,0
0:5:13.462,612.333,77.9659,0,0.000885,0,0
0:5:16.067,617.32,78.6002,0,0.000885,0,0
0:5:18.655,623.013,79.3242,0,0.000885,0,0
0:5:21.273,627.826,79.9378,0,0.000885,0,0
0:5:23.866,632.408,80.5239,0,0.000885,0,0
0:5:26.472,637.924,81.2202,0,0.000885,0,0
0:5:29.064,642.973,81.8683,0,0.000885,0,0
0:5:31.671,648.137,82.5233,0,0.000885,0,0
0:5:34.270,652.834,83.1232,0,0.000885,0,0
0:5:36.875,657.825,83.7575,0,0.000885,0,0
0:5:39.461,663.341,84.4608,0,0.000885,0,0
0:5:42.068,667.976,85.0468,0,0.000885,0,0
0:5:44.668,673.79,85.7915,0,0.000885,0,0
0:5:47.267,678.603,86.4051,0,0.000885,0,0
0:5:49.869,683.594,87.0394,0,0.000885,0,0
0:5:52.465,689.167,87.7496,0,0.000885,0,0
0:5:55.067,694.336,88.4046,0,0.000885,0,0
0:5:57.671,699.029,89.0044,0,0.000885,0,0
0:6:0.280,703.962,89.6318,0,0.000885,0,0
0:6:2.868,709.714,90.3627,0,0.000885,0,0
0:6:5.475,714.82,91.0108,0,0.000885,0,0
0:6:8.060,719.691,91.6313,0,0.000885,0,0
0:6:10.670,724.446,92.2381,0,0.000885,0,0
0:6:13.261,729.731,92.9137,0,0.000885,0,0
0:6:15.872,735.304,93.6239,0,0.000885,0,0
0:6:18.460,739.824,94.1962,0,0.000885,0,0
0:6:21.076,744.993,94.8581,0,0.000885,0,0
0:6:23.667,749.979,95.4924,0,0.000885,0,0
0:6:26.273,755.499,96.1957,0,0.000885,0,0
0:6:28.861,760.548,96.8369,0,0.000885,0,0
0:6:31.467,765.183,97.4229,0,0.000885,0,0
0:6:34.061,770.703,98.1262,0,0.000885,0,0
0:6:36.670,775.458,98.7329,0,0.000885,0,0
0:6:39.268,781.032,99.4431,0,0.000885,0,0
0:6:41.872,785.787,100.05,0,0.000885,0,0
0:6:44.459,791.014,100.712,0,0.000885,0,0
0:6:47.076,795.827,101.325,0,0.000885,0,0
0:6:49.664,801.578,102.063,0,0.000885,0,0
0:6:52.273,806.271,102.656,0,0.000885,0,0
0:6:54.884,811.614,103.339,0,0.000885,0,0
0:6:57.477,816.489,103.959,0,0.000885,0,0
0:7:0.081,821.827,104.642,0,0.000885,0,0
0:7:2.669,826.466,105.228,0,0.000885,0,0
0:7:5.288,832.276,105.966,0,0.000885,0,0
0:7:7.875,836.915,106.558,0,0.000885,0,0
0:7:10.484,841.964,107.2,0,0.000885,0,0
0:7:13.073,847.422,107.896,0,0.000885,0,0
0:7:15.668,852.177,108.503,0,0.000885,0,0
0:7:18.273,857.341,109.158,0,0.000885,0,0
0:7:20.876,862.448,109.813,0,0.000885,0,0
0:7:23.475,867.79,110.488,0,0.000885,0,0
0:7:26.091,872.781,111.123,0,0.000885,0,0
0:7:28.672,877.945,111.785,0,0.000885,0,0
0:7:31.277,883.524,112.495,0,0.000885,0,0
0:7:33.877,887.514,113.005,0,0.000885,0,0
0:7:36.484,893.087,113.708,0,0.000885,0,0
0:7:39.073,898.607,114.412,0,0.000885,0,0
0:7:41.677,903.243,115.005,0,0.000885,0,0
0:7:44.264,908.354,115.653,0,0.000885,0,0
0:7:46.868,913.634,116.328,0,0.000885,0,0
0:7:49.479,918.74,116.976,0,0.000885,0,0
0:7:52.083,923.495,117.583,0,0.000885,0,0
0:7:54.670,929.189,118.307,0,0.000885,0,0
0:7:57.278,933.766,118.893,0,0.000885,0,0
0:7:59.879,939.344,119.603,0,0.000885,0,0
0:8:2.470,944.215,120.224,0,0.000885,0,0
0:8:5.076,949.148,120.851,0,0.000885,0,0
0:8:7.673,954.784,121.568,0,0.000885,0,0
0:8:10.289,960.242,122.265,0,0.000885,0,0
0:8:12.878,964.352,122.782,0,0.000885,0,0
0:8:15.473,969.868,123.485,0,0.000885,0,0
0:8:18.063,974.565,124.085,0,0.000885,0,0
0:8:20.691,979.378,124.699,0,0.000885,0,0
0:8:23.280,985.308,125.45,0,0.000885,0,0
0:8:25.882,990.588,126.126,0,0.000885,0,0
0:8:28.471,995.227,126.719,0,0.000885,0,0
0:8:31.088,1000.45,127.381,0,0.000885,0,0
0:8:33.676,1004.97,127.96,0,0.000885,0,0
0:8:36.281,1010.55,128.67,0,0.000885,0,0
0:8:38.868,1015.65,129.318,0,0.000885,0,0
0:8:41.483,1021.41,130.049,0,0.000885,0,0
0:8:44.069,1025.98,130.635,0,0.000885,0,0
0:8:46.685,1031.32,131.311,0,0.000885,0,0
0:8:49.283,1036.14,131.924,0,0.000885,0,0
0:8:51.888,1040.95,132.538,0,0.000885,0,0
0:8:54.476,1046.41,133.234,0,0.000885,0,0
0:8:57.090,1051.87,133.931,0,0.000885,0,0
0:8:59.677,1056.68,134.544,0,0.000885,0,0
0:9:2.273,1061.55,135.165,0,0.000885,0,0
0:9:4.883,1067.07,135.861,0,0.000885,0,0
0:9:7.474,1071.47,136.427,0,0.000885,0,0
0:9:10.076,1077.46,137.185,0,0.000885,0,0
0:9:12.669,1082.45,137.819,0,0.000885,0,0
0:9:15.286,1087.27,138.433,0,0.000885,0,0
0:9:17.870,1092.2,139.06,0,0.000885,0,0
0:9:20.499,1097.6,139.75,0,0.000885,0,0
0:9:23.086,1102.29,140.35,0,0.000885,0,0
0:9:25.694,1107.81,141.053,0,0.000885,0,0
0:9:28.286,1112.51,141.646,0,0.000885,0,0
0:9:30.898,1118.08,142.356,0,0.000885,0,0
0:9:33.486,1122.84,142.963,0,0.000885,0,0
0:9:36.089,1128.42,143.673,0,0.000885,0,0
0:9:38.670,1133.17,144.28,0,0.000885,0,0
0:9:41.283,1137.98,144.893,0,0.000885,0,0
0:9:43.882,1144.03,145.666,0,0.000885,0,0
0:9:46.489,1147.9,146.155,0,0.000885,0,0
0:9:49.086,1153.36,146.851,0,0.000885,0,0
0:9:51.691,1158.65,147.52,0,0.000885,0,0
0:9:54.278,1163.52,148.141,0,0.000885,0,0
0:9:56.880,1168.86,148.823,0,0.000885,0,0
0:9:59.494,1174.5,149.54,0,0.000885,0,0
0:10:2.095,1179.01,150.12,0,0.000885,0,0
0:10:4.690,1184.29,150.788,0,0.000885,0,0
0:10:6.465,1175.9,149.72,0,0.000885,0,0