File: DataFile2021-06-08_064755.csv
Test ID:,Date Tested:,Time:,Test Type:,Diameter Avg. (mm):,Cyl. Corr. Factor:,Height (mm):,Age (days):,Weight (kN):,Break Type:,Ramp Rate (MPa/s):,Load at Break (kN):,Stress at Break (MPa):
12,6/8/2021,06:47,Cylinder,100,1,200,0,3.6,3,0.24,354.43,45.13
Sample Time,Load (kN),Stress (MPa),Long. Strain,Trans. Strain,Chan1 Deflection (mm),Chan2 Deflection (mm)
0:0:14.170,6.86361,0.875634,0,0.000885,0,0
0:0:14.967,15.3063,1.95122,0,0.000885,0,0
0:0:15.757,14.0742,1.79264,0,0.000885,0,0
0:0:16.554,13.785,1.75816,0,0.000885,0,0
0:0:17.344,13.785,1.75816,0,0.000885,0,0
0:0:18.139,12.9043,1.64095,0,0.000885,0,0
0:0:18.942,14.1943,1.80643,0,0.000885,0,0
0:0:19.739,14.9549,1.90295,0,0.000885,0,0
0:0:20.546,16.9522,2.15806,0,0.000885,0,0
0:0:21.349,19.2964,2.45453,0,0.000885,0,0
0:0:22.149,21.347,2.71653,0,0.000885,0,0
0:0:22.943,23.0507,2.93717,0,0.000885,0,0
0:0:23.740,24.5141,3.12333,0,0.000885,0,0
0:0:24.542,25.515,3.24743,0,0.000885,0,0
0:0:25.352,27.0363,3.44048,0,0.000885,0,0
0:0:26.159,28.74,3.66112,0,0.000885,0,0
0:0:26.953,30.7906,3.92312,0,0.000885,0,0
0:0:27.752,31.8493,4.05412,0,0.000885,0,0
0:0:28.544,33.1971,4.22649,0,0.000885,0,0
0:0:29.344,35.0742,4.4678,0,0.000885,0,0
0:0:30.147,36.8891,4.69533,0,0.000885,0,0
0:0:30.952,38.357,4.88149,0,0.000885,0,0
0:0:31.752,39.4735,5.02628,0,0.000885,0,0
0:0:32.547,41.3507,5.26759,0,0.000885,0,0
0:0:33.345,43.0499,5.48133,0,0.000885,0,0
0:0:34.137,44.927,5.72265,0,0.000885,0,0
0:0:34.947,46.1014,5.86744,0,0.000885,0,0
0:0:35.754,47.8006,6.08807,0,0.000885,0,0
0:0:36.552,49.0327,6.23976,0,0.000885,0,0
0:0:37.347,50.3806,6.41212,0,0.000885,0,0
0:0:38.142,52.2577,6.65344,0,0.000885,0,0
0:0:38.940,54.3083,6.91544,0,0.000885,0,0
0:0:39.750,55.4827,7.06713,0,0.000885,0,0
0:0:40.558,57.2442,7.28776,0,0.000885,0,0
0:0:41.358,58.6498,7.46702,0,0.000885,0,0
0:0:42.156,59.9976,7.63939,0,0.000885,0,0
0:0:42.951,62.1105,7.90829,0,0.000885,0,0
0:0:43.746,63.227,8.05308,0,0.000885,0,0
0:0:44.542,65.2777,8.30818,0,0.000885,0,0
0:0:45.353,66.5098,8.46676,0,0.000885,0,0
0:0:46.157,67.9154,8.64603,0,0.000885,0,0
0:0:46.951,69.5613,8.85976,0,0.000885,0,0
0:0:47.750,70.9669,9.03903,0,0.000885,0,0
0:0:48.544,72.9597,9.28724,0,0.000885,0,0
0:0:49.345,74.6056,9.50098,0,0.000885,0,0
0:0:50.154,75.5397,9.61819,0,0.000885,0,0
0:0:50.958,77.3012,9.84571,0,0.000885,0,0
0:0:51.753,79.1205,10.0732,0,0.000885,0,0
0:0:52.548,80.7619,10.2801,0,0.000885,0,0
0:0:53.344,82.2877,10.48,0,0.000885,0,0
0:0:54.148,83.929,10.6869,0,0.000885,0,0
0:0:54.953,85.4548,10.8799,0,0.000885,0,0
0:0:55.760,87.2741,11.1143,0,0.000885,0,0
0:0:56.561,88.0348,11.2109,0,0.000885,0,0
0:0:57.354,90.0276,11.466,0,0.000885,0,0
0:0:58.152,91.5533,11.659,0,0.000885,0,0
0:0:58.947,93.079,11.8521,0,0.000885,0,0
0:0:59.746,95.0718,12.1072,0,0.000885,0,0
0:1:0.555,96.2462,12.252,0,0.000885,0,0
0:1:1.356,98.239,12.5071,0,0.000885,0,0
0:1:2.155,99.3555,12.6519,0,0.000885,0,0
0:1:2.947,100.997,12.8587,0,0.000885,0,0
0:1:3.745,102.171,13.0104,0,0.000885,0,0
0:1:4.547,104.044,13.2448,0,0.000885,0,0
0:1:5.356,105.69,13.4586,0,0.000885,0,0
0:1:6.164,107.331,13.6654,0,0.000885,0,0
0:1:6.959,109.15,13.8998,0,0.000885,0,0
0:1:7.754,110.85,14.1136,0,0.000885,0,0
0:1:8.548,112.549,14.3273,0,0.000885,0,0
0:1:9.347,113.43,14.4445,0,0.000885,0,0
0:1:10.154,115.422,14.6996,0,0.000885,0,0
0:1:10.961,116.712,14.8582,0,0.000885,0,0
0:1:11.755,118.652,15.1064,0,0.000885,0,0
0:1:12.551,120.235,15.3064,0,0.000885,0,0
0:1:13.348,121.232,15.4374,0,0.000885,0,0
0:1:14.140,122.695,15.6235,0,0.000885,0,0
0:1:14.949,124.048,15.7959,0,0.000885,0,0
0:1:15.755,125.805,16.0165,0,0.000885,0,0
0:1:16.555,127.682,16.2578,0,0.000885,0,0
0:1:17.349,129.501,16.4854,0,0.000885,0,0
0:1:18.145,130.907,16.6646,0,0.000885,0,0
0:1:18.942,131.965,16.8025,0,0.000885,0,0
0:1:19.753,133.843,17.0438,0,0.000885,0,0
0:1:20.561,136.129,17.3334,0,0.000885,0,0
0:1:21.362,137.535,17.5127,0,0.000885,0,0
0:1:22.158,138.882,17.6851,0,0.000885,0,0
0:1:22.954,140.586,17.8988,0,0.000885,0,0
0:1:23.747,141.525,18.016,0,0.000885,0,0
0:1:24.544,143.633,18.2849,0,0.000885,0,0
0:1:25.353,144.692,18.4228,0,0.000885,0,0
0:1:26.158,147.214,18.7468,0,0.000885,0,0
0:1:26.951,148.74,18.9399,0,0.000885,0,0
0:1:27.747,149.442,19.0295,0,0.000885,0,0
0:1:28.544,151.671,19.3122,0,0.000885,0,0
0:1:29.347,152.432,19.4087,0,0.000885,0,0
0:1:30.156,154.78,19.7052,0,0.000885,0,0
0:1:30.960,156.422,19.919,0,0.000885,0,0
0:1:31.759,158.063,20.1258,0,0.000885,0,0
0:1:32.550,159.18,20.2637,0,0.000885,0,0
0:1:33.345,160.349,20.4154,0,0.000885,0,0
0:1:34.144,162.405,20.6774,0,0.000885,0,0
0:1:34.954,164.046,20.8842,0,0.000885,0,0
0:1:35.762,164.575,20.9532,0,0.000885,0,0
0:1:36.561,166.804,21.2359,0,0.000885,0,0
0:1:37.360,168.561,21.4634,0,0.000885,0,0
0:1:38.154,170.674,21.7323,0,0.000885,0,0
0:1:38.949,171.848,21.8771,0,0.000885,0,0
0:1:39.755,173.138,22.0425,0,0.000885,0,0
0:1:40.562,174.895,22.2701,0,0.000885,0,0
0:1:41.364,176.657,22.4907,0,0.000885,0,0
0:1:42.154,177.827,22.6424,0,0.000885,0,0
0:1:42.953,179.646,22.8699,0,0.000885,0,0
0:1:43.747,180.7,23.0078,0,0.000885,0,0
0:1:44.554,182.519,23.2422,0,0.000885,0,0
0:1:45.364,184.454,23.4835,0,0.000885,0,0
0:1:46.163,186.096,23.6973,0,0.000885,0,0
0:1:46.962,187.622,23.8903,0,0.000885,0,0
0:1:47.754,188.738,24.0282,0,0.000885,0,0
0:1:48.553,190.615,24.2695,0,0.000885,0,0
0:1:49.344,192.021,24.4488,0,0.000885,0,0
0:1:50.150,193.724,24.6625,0,0.000885,0,0
0:1:50.951,195.482,24.8901,0,0.000885,0,0
0:1:51.743,196.598,25.0349,0,0.000885,0,0
0:1:52.543,198.475,25.2693,0,0.000885,0,0
0:1:53.343,199.939,25.4554,0,0.000885,0,0
0:1:54.145,201.931,25.7105,0,0.000885,0,0
0:1:54.947,202.812,25.8209,0,0.000885,0,0
0:1:55.752,204.396,26.0277,0,0.000885,0,0
0:1:56.544,206.273,26.2621,0,0.000885,0,0
0:1:57.348,207.799,26.4552,0,0.000885,0,0
0:1:58.145,209.324,26.6551,0,0.000885,0,0
0:1:58.944,210.73,26.8344,0,0.000885,0,0
0:1:59.754,212.785,27.0895,0,0.000885,0,0
0:2:0.555,214.311,27.2894,0,0.000885,0,0
0:2:1.348,215.249,27.4067,0,0.000885,0,0
0:2:2.145,216.655,27.5859,0,0.000885,0,0
0:2:2.948,218.532,27.8272,0,0.000885,0,0
0:2:3.745,220.289,28.0479,0,0.000885,0,0
0:2:4.547,221.873,28.2478,0,0.000885,0,0
0:2:5.350,223.341,28.434,0,0.000885,0,0
0:2:6.150,225.102,28.6615,0,0.000885,0,0
0:2:6.949,226.859,28.8821,0,0.000885,0,0
0:2:7.737,228.621,29.1097,0,0.000885,0,0
0:2:8.548,229.733,29.2476,0,0.000885,0,0
0:2:9.346,232.082,29.5509,0,0.000885,0,0
0:2:10.147,232.549,29.6061,0,0.000885,0,0
0:2:10.948,234.31,29.8336,0,0.000885,0,0
0:2:11.753,236.419,30.1025,0,0.000885,0,0
0:2:12.550,237.651,30.2611,0,0.000885,0,0
0:2:13.352,239.061,30.4404,0,0.000885,0,0
0:2:14.149,240.644,30.6403,0,0.000885,0,0
0:2:14.954,242.815,30.9161,0,0.000885,0,0
0:2:15.755,243.927,31.0609,0,0.000885,0,0
0:2:16.550,245.217,31.2195,0,0.000885,0,0
0:2:17.352,246.743,31.4194,0,0.000885,0,0
0:2:18.148,248.678,31.6607,0,0.000885,0,0
0:2:18.953,250.733,31.9227,0,0.000885,0,0
0:2:19.748,251.729,32.0537,0,0.000885,0,0
0:2:20.550,252.961,32.2054,0,0.000885,0,0
0:2:21.342,254.483,32.4054,0,0.000885,0,0
0:2:22.143,256.066,32.6053,0,0.000885,0,0
0:2:22.943,258.121,32.8673,0,0.000885,0,0
0:2:23.732,259.647,33.0604,0,0.000885,0,0
0:2:24.532,261.462,33.2879,0,0.000885,0,0
0:2:25.338,262.872,33.4672,0,0.000885,0,0
0:2:26.139,264.278,33.6464,0,0.000885,0,0
0:2:26.948,266.506,33.936,0,0.000885,0,0
0:2:27.749,267.738,34.0877,0,0.000885,0,0
0:2:28.547,268.913,34.2394,0,0.000885,0,0
0:2:29.348,270.79,34.4807,0,0.000885,0,0
0:2:30.156,272.316,34.6737,0,0.000885,0,0
0:2:30.957,273.548,34.8323,0,0.000885,0,0
0:2:31.750,274.66,34.9702,0,0.000885,0,0
0:2:32.535,276.831,35.246,0,0.000885,0,0
0:2:33.336,278.472,35.4528,0,0.000885,0,0
0:2:34.154,280.527,35.7148,0,0.000885,0,0
0:2:34.960,281.817,35.8803,0,0.000885,0,0
0:2:35.762,283.401,36.0803,0,0.000885,0,0
0:2:36.553,284.633,36.2388,0,0.000885,0,0
0:2:37.353,286.274,36.4526,0,0.000885,0,0
0:2:38.150,287.858,36.6525,0,0.000885,0,0
0:2:38.953,289.735,36.887,0,0.000885,0,0
0:2:39.756,290.673,37.0111,0,0.000885,0,0
0:2:40.561,292.315,37.2179,0,0.000885,0,0
0:2:41.354,294.134,37.4523,0,0.000885,0,0
0:2:42.149,295.891,37.673,0,0.000885,0,0
0:2:42.945,297.417,37.866,0,0.000885,0,0
0:2:43.744,298.885,38.0522,0,0.000885,0,0
0:2:44.548,300.291,38.2314,0,0.000885,0,0
0:2:45.354,302.226,38.4796,0,0.000885,0,0
0:2:46.156,303.516,38.6451,0,0.000885,0,0
0:2:46.952,305.571,38.9071,0,0.000885,0,0
0:2:47.754,306.389,39.0105,0,0.000885,0,0
0:2:48.550,308.502,39.2794,0,0.000885,0,0
0:2:49.353,309.908,39.4587,0,0.000885,0,0
0:2:50.152,311.491,39.6586,0,0.000885,0,0
0:2:50.953,313.426,39.9069,0,0.000885,0,0
0:2:51.745,315.366,40.1551,0,0.000885,0,0
0:2:52.552,316.068,40.2447,0,0.000885,0,0
0:2:53.344,317.652,40.4446,0,0.000885,0,0
0:2:54.140,319.471,40.6791,0,0.000885,0,0
0:2:54.944,320.583,40.817,0,0.000885,0,0
0:2:55.744,322.576,41.0721,0,0.000885,0,0
0:2:56.545,324.044,41.2582,0,0.000885,0,0
0:2:57.345,325.512,41.4444,0,0.000885,0,0
0:2:58.154,326.624,41.5892,0,0.000885,0,0
0:2:58.946,328.323,41.8029,0,0.000885,0,0
0:2:59.743,330.2,42.0442,0,0.000885,0,0
0:3:0.544,331.61,42.2235,0,0.000885,0,0
0:3:1.350,333.603,42.4786,0,0.000885,0,0
0:3:2.139,334.835,42.6303,0,0.000885,0,0
0:3:2.953,336.655,42.8647,0,0.000885,0,0
0:3:3.746,338.06,43.044,0,0.000885,0,0
0:3:4.542,339.35,43.2094,0,0.000885,0,0
0:3:5.347,340.583,43.3611,0,0.000885,0,0
0:3:6.155,342.638,43.6231,0,0.000885,0,0
0:3:6.957,344.221,43.83,0,0.000885,0,0
0:3:7.755,345.863,44.0368,0,0.000885,0,0
0:3:8.546,347.268,44.2161,0,0.000885,0,0
0:3:9.355,348.558,44.3816,0,0.000885,0,0
0:3:10.160,349.968,44.5608,0,0.000885,0,0
0:3:10.962,351.494,44.7539,0,0.000885,0,0
0:3:11.751,352.197,44.8435,0,0.000885,0,0
0:3:12.553,353.602,45.0228,0,0.000885,0,0
0:3:13.358,354.661,45.1538,0,0.000885,0,0
0:3:14.151,353.896,45.0572,0,0.000885,0,0
0:3:14.954,351.788,44.7883,0,0.000885,0,0
0:3:15.755,341.815,43.5197,0,0.000885,0,0
0:3:16.556,298.004,37.9418,0,0.000885,0,0
0:3:17.355,253.313,32.2537,0,0.000885,0,0
0:3:17.383,253.313,32.2537,0,0.000885,0,0