File: DataFile2021-06-24_053828.csv
Test ID:,Date Tested:,Time:,Test Type:,Diameter Avg. (mm):,Cyl. Corr. Factor:,Height (mm):,Age (days):,Weight (kN):,Break Type:,Ramp Rate (MPa/s):,Load at Break (kN):,Stress at Break (MPa):
12,6/24/2021,05:38,Cylinder,150,1,300,0,3.6,3,0.25,1213.7,68.68
Sample Time,Load (kN),Stress (MPa),Long. Strain,Trans. Strain,Chan1 Deflection (mm),Chan2 Deflection (mm)
0:0:15.932,10.6757,0.606739,0,0.000885,0,0
0:0:17.126,17.7706,1.00663,0,0.000885,0,0
0:0:18.316,16.9522,0.958371,0,0.000885,0,0
0:0:19.504,20.1193,1.13763,0,0.000885,0,0
0:0:20.701,25.3949,1.43411,0,0.000885,0,0
0:0:21.908,32.3742,1.83401,0,0.000885,0,0
0:0:23.113,38.0056,2.15116,0,0.000885,0,0
0:0:24.311,42.4049,2.39938,0,0.000885,0,0
0:0:25.506,47.1556,2.66827,0,0.000885,0,0
0:0:26.711,53.3119,3.0199,0,0.000885,0,0
0:0:27.923,58.6498,3.31638,0,0.000885,0,0
0:0:29.117,63.9298,3.61975,0,0.000885,0,0
0:0:30.309,68.0934,3.85417,0,0.000885,0,0
0:0:31.509,74.0184,4.18512,0,0.000885,0,0
0:0:32.723,80.0591,4.52986,0,0.000885,0,0
0:0:33.920,84.8676,4.80565,0,0.000885,0,0
0:0:35.118,90.0276,5.09523,0,0.000885,0,0
0:0:36.314,95.6012,5.41238,0,0.000885,0,0
0:0:37.529,101.113,5.72265,0,0.000885,0,0
0:0:38.729,106.686,6.03981,0,0.000885,0,0
0:0:39.922,111.379,6.30181,0,0.000885,0,0
0:0:41.118,115.952,6.56381,0,0.000885,0,0
0:0:42.331,122.228,6.91544,0,0.000885,0,0
0:0:43.531,127.273,7.20502,0,0.000885,0,0
0:0:44.729,132.259,7.48081,0,0.000885,0,0
0:0:45.925,138.122,7.81865,0,0.000885,0,0
0:0:47.135,143.344,8.10823,0,0.000885,0,0
0:0:48.342,148.384,8.39781,0,0.000885,0,0
0:0:49.533,153.779,8.70118,0,0.000885,0,0
0:0:50.728,158.766,8.98387,0,0.000885,0,0
0:0:51.935,164.104,9.28724,0,0.000885,0,0
0:0:53.141,170.144,9.62508,0,0.000885,0,0
0:0:54.338,174.659,9.88708,0,0.000885,0,0
0:0:55.535,180.469,10.2111,0,0.000885,0,0
0:0:56.735,185.687,10.5076,0,0.000885,0,0
0:0:57.949,190.967,10.8041,0,0.000885,0,0
0:0:59.139,195.891,11.0868,0,0.000885,0,0
0:1:0.323,201.407,11.397,0,0.000885,0,0
0:1:1.512,206.976,11.7142,0,0.000885,0,0
0:1:2.721,211.904,11.99,0,0.000885,0,0
0:1:3.912,217.122,12.2865,0,0.000885,0,0
0:1:5.100,222.518,12.5898,0,0.000885,0,0
0:1:6.290,227.504,12.8725,0,0.000885,0,0
0:1:7.494,233.078,13.1897,0,0.000885,0,0
0:1:8.694,238.474,13.493,0,0.000885,0,0
0:1:9.887,243.576,13.7826,0,0.000885,0,0
0:1:11.084,248.793,14.0791,0,0.000885,0,0
0:1:12.290,254.545,14.4031,0,0.000885,0,0
0:1:13.476,259.647,14.6927,0,0.000885,0,0
0:1:14.663,264.691,14.9754,0,0.000885,0,0
0:1:15.871,269.794,15.265,0,0.000885,0,0
0:1:17.071,275.421,15.589,0,0.000885,0,0
0:1:18.265,280.349,15.8648,0,0.000885,0,0
0:1:19.454,286.154,16.1958,0,0.000885,0,0
0:1:20.636,291.318,16.4854,0,0.000885,0,0
0:1:21.841,296.421,16.7749,0,0.000885,0,0
0:1:23.036,301.874,17.0852,0,0.000885,0,0
0:1:24.220,306.976,17.3679,0,0.000885,0,0
0:1:25.406,312.608,17.6919,0,0.000885,0,0
0:1:26.603,317.768,17.9815,0,0.000885,0,0
0:1:27.802,322.167,18.2297,0,0.000885,0,0
0:1:28.990,328.034,18.5607,0,0.000885,0,0
0:1:30.186,333.194,18.8572,0,0.000885,0,0
0:1:31.373,338.999,19.1812,0,0.000885,0,0
0:1:32.579,344.279,19.4846,0,0.000885,0,0
0:1:33.767,348.62,19.7259,0,0.000885,0,0
0:1:34.970,354.31,20.05,0,0.000885,0,0
0:1:36.159,359.937,20.3671,0,0.000885,0,0
0:1:37.364,365.275,20.6705,0,0.000885,0,0
0:1:38.585,370.435,20.9601,0,0.000885,0,0
0:1:39.792,376.008,21.2772,0,0.000885,0,0
0:1:40.992,381.346,21.5806,0,0.000885,0,0
0:1:42.198,386.684,21.884,0,0.000885,0,0
0:1:43.393,392.489,22.208,0,0.000885,0,0
0:1:44.586,396.359,22.4286,0,0.000885,0,0
0:1:45.780,401.817,22.7389,0,0.000885,0,0
0:1:46.989,407.328,23.0492,0,0.000885,0,0
0:1:48.188,412.782,23.3594,0,0.000885,0,0
0:1:49.393,418.355,23.6766,0,0.000885,0,0
0:1:50.591,423.222,23.9524,0,0.000885,0,0
0:1:51.792,429.204,24.2902,0,0.000885,0,0
0:1:52.986,434.484,24.5867,0,0.000885,0,0
0:1:54.193,438.942,24.8418,0,0.000885,0,0
0:1:55.386,444.924,25.1797,0,0.000885,0,0
0:1:56.590,449.906,25.4623,0,0.000885,0,0
0:1:57.793,455.716,25.7864,0,0.000885,0,0
0:1:58.994,460.698,26.0691,0,0.000885,0,0
0:2:0.190,465.978,26.3656,0,0.000885,0,0
0:2:1.388,471.961,26.7103,0,0.000885,0,0
0:2:2.595,475.831,26.924,0,0.000885,0,0
0:2:3.795,481.169,27.2274,0,0.000885,0,0
0:2:4.993,487.267,27.5721,0,0.000885,0,0
0:2:6.191,492.605,27.8755,0,0.000885,0,0
0:2:7.396,497.591,28.1582,0,0.000885,0,0
0:2:8.584,503.045,28.4685,0,0.000885,0,0
0:2:9.788,508.734,28.7856,0,0.000885,0,0
0:2:10.982,513.369,29.0476,0,0.000885,0,0
0:2:12.190,518.587,29.3441,0,0.000885,0,0
0:2:13.389,524.103,29.6612,0,0.000885,0,0
0:2:14.595,529.614,29.9715,0,0.000885,0,0
0:2:15.792,534.365,30.2404,0,0.000885,0,0
0:2:16.998,540.17,30.5645,0,0.000885,0,0
0:2:18.193,545.743,30.8816,0,0.000885,0,0
0:2:19.392,550.961,31.1781,0,0.000885,0,0
0:2:20.583,555.481,31.4332,0,0.000885,0,0
0:2:21.797,560.756,31.7297,0,0.000885,0,0
0:2:22.994,566.503,32.0606,0,0.000885,0,0
0:2:24.189,571.899,32.364,0,0.000885,0,0
0:2:25.393,577.708,32.6949,0,0.000885,0,0
0:2:26.601,582.401,32.9569,0,0.000885,0,0
0:2:27.799,588.206,33.2879,0,0.000885,0,0
0:2:28.990,593.371,33.5775,0,0.000885,0,0
0:2:30.192,598.304,33.8602,0,0.000885,0,0
0:2:31.396,603.641,34.1566,0,0.000885,0,0
0:2:32.608,608.632,34.4393,0,0.000885,0,0
0:2:33.803,613.917,34.7427,0,0.000885,0,0
0:2:34.993,619.668,35.0667,0,0.000885,0,0
0:2:36.193,624.833,35.3563,0,0.000885,0,0
0:2:37.406,630.469,35.6804,0,0.000885,0,0
0:2:38.601,635.402,35.9562,0,0.000885,0,0
0:2:39.793,640.624,36.2526,0,0.000885,0,0
0:2:40.997,646.024,36.556,0,0.000885,0,0
0:2:42.210,651.366,36.8594,0,0.000885,0,0
0:2:43.404,657.234,37.1903,0,0.000885,0,0
0:2:44.598,661.931,37.4592,0,0.000885,0,0
0:2:45.799,667.567,37.7764,0,0.000885,0,0
0:2:47.007,672.731,38.066,0,0.000885,0,0
0:2:48.209,678.074,38.3693,0,0.000885,0,0
0:2:49.398,682.887,38.6451,0,0.000885,0,0
0:2:50.599,688.113,38.9416,0,0.000885,0,0
0:2:51.802,693.807,39.2587,0,0.000885,0,0
0:2:53.008,699.145,39.5621,0,0.000885,0,0
0:2:54.196,704.136,39.8448,0,0.000885,0,0
0:2:55.399,710.065,40.1826,0,0.000885,0,0
0:2:56.605,715.172,40.4722,0,0.000885,0,0
0:2:57.804,720.22,40.7549,0,0.000885,0,0
0:2:58.999,725.736,41.0652,0,0.000885,0,0
0:3:0.198,730.549,41.341,0,0.000885,0,0
0:3:1.408,735.718,41.6305,0,0.000885,0,0
0:3:2.620,741.412,41.9546,0,0.000885,0,0
0:3:3.809,746.398,42.2373,0,0.000885,0,0
0:3:4.996,751.505,42.5269,0,0.000885,0,0
0:3:6.202,756.202,42.7958,0,0.000885,0,0
0:3:7.413,761.251,43.0784,0,0.000885,0,0
0:3:8.609,763.07,43.1819,0,0.000885,0,0
0:3:9.803,766.593,43.3818,0,0.000885,0,0
0:3:11.002,774.28,43.8162,0,0.000885,0,0
0:3:12.209,783.496,44.3402,0,0.000885,0,0
0:3:13.412,794.123,44.94,0,0.000885,0,0
0:3:14.600,801.285,45.3399,0,0.000885,0,0
0:3:15.801,804.394,45.5192,0,0.000885,0,0
0:3:17.014,807.739,45.7053,0,0.000885,0,0
0:3:18.208,811.734,45.9329,0,0.000885,0,0
0:3:19.400,816.017,46.1742,0,0.000885,0,0
0:3:20.602,820.888,46.45,0,0.000885,0,0
0:3:21.809,826.173,46.7533,0,0.000885,0,0
0:3:23.012,831.809,47.0705,0,0.000885,0,0
0:3:24.198,834.389,47.2153,0,0.000885,0,0
0:3:25.400,841.964,47.6428,0,0.000885,0,0
0:3:26.603,847.364,47.953,0,0.000885,0,0
0:3:27.810,853.876,48.3185,0,0.000885,0,0
0:3:29.001,860.041,48.6701,0,0.000885,0,0
0:3:30.204,864.503,48.9183,0,0.000885,0,0
0:3:31.409,868.729,49.1596,0,0.000885,0,0
0:3:32.620,874.013,49.4561,0,0.000885,0,0
0:3:33.811,879.88,49.7939,0,0.000885,0,0
0:3:35.000,884.693,50.0628,0,0.000885,0,0
0:3:36.206,889.506,50.3386,0,0.000885,0,0
0:3:37.419,895.142,50.6558,0,0.000885,0,0
0:3:38.612,901.014,50.9867,0,0.000885,0,0
0:3:39.807,905.418,51.2349,0,0.000885,0,0
0:3:41.003,911.169,51.559,0,0.000885,0,0
0:3:42.214,916.685,51.8762,0,0.000885,0,0
0:3:43.413,921.912,52.1726,0,0.000885,0,0
0:3:44.601,926.489,52.4277,0,0.000885,0,0
0:3:45.804,930.893,52.6759,0,0.000885,0,0
0:3:47.010,938.228,53.0896,0,0.000885,0,0
0:3:48.212,943.628,53.3999,0,0.000885,0,0
0:3:49.407,949.206,53.7171,0,0.000885,0,0
0:3:50.604,953.432,53.9515,0,0.000885,0,0
0:3:51.814,958.89,54.2617,0,0.000885,0,0
0:3:53.015,963.703,54.5375,0,0.000885,0,0
0:3:54.203,969.396,54.8547,0,0.000885,0,0
0:3:55.407,974.33,55.1374,0,0.000885,0,0
0:3:56.611,979.903,55.4545,0,0.000885,0,0
0:3:57.813,985.188,55.751,0,0.000885,0,0
0:3:59.007,990.414,56.0475,0,0.000885,0,0
0:4:0.208,995.988,56.3646,0,0.000885,0,0
0:4:1.408,1000.98,56.6404,0,0.000885,0,0
0:4:2.616,1006.38,56.9507,0,0.000885,0,0
0:4:3.804,1011.13,57.2196,0,0.000885,0,0
0:4:5.007,1016.71,57.5367,0,0.000885,0,0
0:4:6.202,1022.46,57.8608,0,0.000885,0,0
0:4:7.414,1028.16,58.1849,0,0.000885,0,0
0:4:8.608,1032.62,58.4331,0,0.000885,0,0
0:4:9.810,1039.25,58.8123,0,0.000885,0,0
0:4:11.008,1043.77,59.0674,0,0.000885,0,0
0:4:12.218,1050.23,59.4328,0,0.000885,0,0
0:4:13.417,1055.27,59.7155,0,0.000885,0,0
0:4:14.605,1059.79,59.9706,0,0.000885,0,0
0:4:15.797,1064.67,60.2464,0,0.000885,0,0
0:4:17.013,1070.89,60.598,0,0.000885,0,0
0:4:18.213,1076.35,60.9083,0,0.000885,0,0
0:4:19.404,1080.98,61.1703,0,0.000885,0,0
0:4:20.602,1086.68,61.4943,0,0.000885,0,0
0:4:21.811,1091.2,61.7494,0,0.000885,0,0
0:4:23.011,1096.01,62.0183,0,0.000885,0,0
0:4:24.201,1101.35,62.3217,0,0.000885,0,0
0:4:25.410,1104.82,62.5217,0,0.000885,0,0
0:4:26.614,1110.57,62.8457,0,0.000885,0,0
0:4:27.818,1118.26,63.2801,0,0.000885,0,0
0:4:29.010,1124.31,63.6248,0,0.000885,0,0
0:4:30.214,1129,63.8868,0,0.000885,0,0
0:4:31.407,1134.93,64.2247,0,0.000885,0,0
0:4:32.618,1140.68,64.5487,0,0.000885,0,0
0:4:33.813,1144.91,64.79,0,0.000885,0,0
0:4:35.011,1150.31,65.0934,0,0.000885,0,0
0:4:36.211,1155.83,65.4037,0,0.000885,0,0
0:4:37.423,1161.35,65.7208,0,0.000885,0,0
0:4:38.619,1162.87,65.8036,0,0.000885,0,0
0:4:39.807,1168.8,66.1414,0,0.000885,0,0
0:4:41.009,1175.79,66.5344,0,0.000885,0,0
0:4:42.218,1164.93,65.9208,0,0.000885,0,0
0:4:43.409,1173.14,66.3896,0,0.000885,0,0
0:4:44.598,1182.01,66.886,0,0.000885,0,0
0:4:45.809,1190.81,67.3894,0,0.000885,0,0
0:4:47.017,1196.91,67.7341,0,0.000885,0,0
0:4:48.218,1202.49,68.0444,0,0.000885,0,0
0:4:49.408,1207.36,68.3201,0,0.000885,0,0
0:4:50.609,1213.64,68.6787,0,0.000885,0,0
0:4:51.819,1209.48,68.4443,0,0.000885,0,0
0:4:53.021,1087.21,61.5219,0,0.000885,0,0
0:4:54.208,1067.19,60.3912,0,0.000885,0,0
0:4:55.407,1033.85,58.502,0,0.000885,0,0
0:4:56.414,850.651,48.1392,0,0.000885,0,0