File: DataFile2021-06-06_061910.csv
Test ID:,Date Tested:,Time:,Test Type:,Diameter Avg. (mm):,Cyl. Corr. Factor:,Height (mm):,Age (days):,Weight (kN):,Break Type:,Ramp Rate (MPa/s):,Load at Break (kN):,Stress at Break (MPa):
12,6/6/2021,06:19,Cylinder,150,1,300,0,13.39,3,0.24,673.5,38.11
Sample Time,Load (kN),Stress (MPa),Long. Strain,Trans. Strain,Chan1 Deflection (mm),Chan2 Deflection (mm)
0:0:16.908,7.45077,0.42058,0,0.000885,0,0
0:0:17.604,10.0307,0.56537,0,0.000885,0,0
0:0:18.292,9.79498,0.551581,0,0.000885,0,0
0:0:18.990,13.7228,0.779108,0,0.000885,0,0
0:0:19.687,16.8899,0.958371,0,0.000885,0,0
0:0:20.378,19.7634,1.11695,0,0.000885,0,0
0:0:21.078,22.7571,1.28932,0,0.000885,0,0
0:0:21.773,25.6307,1.4479,0,0.000885,0,0
0:0:22.481,28.4464,1.60648,0,0.000885,0,0
0:0:23.188,31.9071,1.80643,0,0.000885,0,0
0:0:23.891,34.8963,1.9719,0,0.000885,0,0
0:0:24.589,37.5964,2.13048,0,0.000885,0,0
0:0:25.286,41.8756,2.3718,0,0.000885,0,0
0:0:25.982,46.0391,2.60622,0,0.000885,0,0
0:0:26.682,49.7934,2.81996,0,0.000885,0,0
0:0:27.382,53.0184,2.99922,0,0.000885,0,0
0:0:28.094,56.5992,3.20606,0,0.000885,0,0
0:0:28.799,59.1213,3.34396,0,0.000885,0,0
0:0:29.494,61.2876,3.46806,0,0.000885,0,0
0:0:30.190,64.0455,3.62664,0,0.000885,0,0
0:0:30.889,67.0391,3.79212,0,0.000885,0,0
0:0:31.585,69.3834,3.92312,0,0.000885,0,0
0:0:32.280,72.7284,4.11617,0,0.000885,0,0
0:0:32.989,75.8956,4.29543,0,0.000885,0,0
0:0:33.696,79.7077,4.50917,0,0.000885,0,0
0:0:34.395,83.4575,4.72291,0,0.000885,0,0
0:0:35.093,86.6869,4.90217,0,0.000885,0,0
0:0:35.788,90.0854,5.09523,0,0.000885,0,0
0:0:36.489,92.1405,5.21244,0,0.000885,0,0
0:0:37.188,94.7783,5.36412,0,0.000885,0,0
0:0:37.898,98.0655,5.55028,0,0.000885,0,0
0:0:38.606,101.464,5.74333,0,0.000885,0,0
0:0:39.300,105.045,5.94328,0,0.000885,0,0
0:0:39.997,107.683,6.09497,0,0.000885,0,0
0:0:40.697,110.908,6.27423,0,0.000885,0,0
0:0:41.390,113.839,6.4397,0,0.000885,0,0
0:0:42.088,116.423,6.59139,0,0.000885,0,0
0:0:42.798,119.822,6.77755,0,0.000885,0,0
0:0:43.504,123.167,6.9706,0,0.000885,0,0
0:0:44.206,126.334,7.14986,0,0.000885,0,0
0:0:44.900,128.798,7.28776,0,0.000885,0,0
0:0:45.597,132.081,7.47392,0,0.000885,0,0
0:0:46.296,135.364,7.66008,0,0.000885,0,0
0:0:46.991,138.18,7.81865,0,0.000885,0,0
0:0:47.698,141.818,8.0255,0,0.000885,0,0
0:0:48.407,144.634,8.18408,0,0.000885,0,0
0:0:49.106,147.975,8.37713,0,0.000885,0,0
0:0:49.806,151.084,8.5495,0,0.000885,0,0
0:0:50.504,154.193,8.72876,0,0.000885,0,0
0:0:51.196,156.595,8.85976,0,0.000885,0,0
0:0:51.897,159.94,9.05282,0,0.000885,0,0
0:0:52.597,162.814,9.2114,0,0.000885,0,0
0:0:53.307,165.923,9.39066,0,0.000885,0,0
0:0:54.015,169.499,9.59061,0,0.000885,0,0
0:0:54.710,172.551,9.76298,0,0.000885,0,0
0:0:55.405,176.07,9.96292,0,0.000885,0,0
0:0:56.106,179.059,10.1353,0,0.000885,0,0
0:0:56.797,181.701,10.2801,0,0.000885,0,0
0:0:57.507,184.984,10.4662,0,0.000885,0,0
0:0:58.213,187.622,10.6179,0,0.000885,0,0
0:0:58.913,191.202,10.8179,0,0.000885,0,0
0:0:59.611,193.782,10.9627,0,0.000885,0,0
0:1:0.304,196.772,11.135,0,0.000885,0,0
0:1:0.990,200.232,11.3281,0,0.000885,0,0
0:1:1.685,203.284,11.5005,0,0.000885,0,0
0:1:2.379,206.037,11.659,0,0.000885,0,0
0:1:3.083,209.324,11.8452,0,0.000885,0,0
0:1:3.787,213.252,12.0658,0,0.000885,0,0
0:1:4.476,216.126,12.2313,0,0.000885,0,0
0:1:5.167,218.941,12.3899,0,0.000885,0,0
0:1:5.863,221.642,12.5416,0,0.000885,0,0
0:1:6.560,224.866,12.7277,0,0.000885,0,0
0:1:7.260,227.624,12.8794,0,0.000885,0,0
0:1:7.967,231.201,13.0862,0,0.000885,0,0
0:1:8.669,235.013,13.3,0,0.000885,0,0
0:1:9.364,237.829,13.4586,0,0.000885,0,0
0:1:10.056,241.054,13.6378,0,0.000885,0,0
0:1:10.766,244.105,13.8102,0,0.000885,0,0
0:1:11.459,246.979,13.9757,0,0.000885,0,0
0:1:12.153,250.146,14.1549,0,0.000885,0,0
0:1:12.857,253.077,14.3204,0,0.000885,0,0
0:1:13.557,255.951,14.4859,0,0.000885,0,0
0:1:14.258,259.176,14.6651,0,0.000885,0,0
0:1:14.957,262.049,14.8306,0,0.000885,0,0
0:1:15.652,265.216,15.0099,0,0.000885,0,0
0:1:16.343,268.21,15.1754,0,0.000885,0,0
0:1:17.035,270.67,15.3202,0,0.000885,0,0
0:1:17.739,274.544,15.5339,0,0.000885,0,0
0:1:18.439,277.24,15.6856,0,0.000885,0,0
0:1:19.134,280.407,15.8648,0,0.000885,0,0
0:1:19.828,283.165,16.0234,0,0.000885,0,0
0:1:20.517,286.977,16.2372,0,0.000885,0,0
0:1:21.212,289.557,16.3888,0,0.000885,0,0
0:1:21.903,292.724,16.5681,0,0.000885,0,0
0:1:22.613,296.069,16.7543,0,0.000885,0,0
0:1:23.317,299.174,16.9266,0,0.000885,0,0
0:1:24.014,302.168,17.099,0,0.000885,0,0
0:1:24.710,305.041,17.2645,0,0.000885,0,0
0:1:25.400,307.857,17.4231,0,0.000885,0,0
0:1:26.090,311.26,17.6161,0,0.000885,0,0
0:1:26.784,314.485,17.7954,0,0.000885,0,0
0:1:27.479,317.358,17.9608,0,0.000885,0,0
0:1:28.185,320.699,18.147,0,0.000885,0,0
0:1:28.887,323.515,18.3056,0,0.000885,0,0
0:1:29.576,326.74,18.4917,0,0.000885,0,0
0:1:30.270,329.088,18.6227,0,0.000885,0,0
0:1:30.960,332.429,18.8089,0,0.000885,0,0
0:1:31.649,335.658,18.9951,0,0.000885,0,0
0:1:32.352,338.941,19.1812,0,0.000885,0,0
0:1:33.056,341.757,19.3398,0,0.000885,0,0
0:1:33.771,345.275,19.5397,0,0.000885,0,0
0:1:34.467,347.798,19.6845,0,0.000885,0,0
0:1:35.166,351.08,19.8638,0,0.000885,0,0
0:1:35.856,354.955,20.0844,0,0.000885,0,0
0:1:36.552,357.708,20.243,0,0.000885,0,0
0:1:37.249,360.288,20.3878,0,0.000885,0,0
0:1:37.953,363.282,20.5602,0,0.000885,0,0
0:1:38.653,366.858,20.7601,0,0.000885,0,0
0:1:39.361,369.91,20.9325,0,0.000885,0,0
0:1:40.068,372.783,21.098,0,0.000885,0,0
0:1:40.767,376.48,21.3048,0,0.000885,0,0
0:1:41.457,378.997,21.4496,0,0.000885,0,0
0:1:42.152,381.813,21.6082,0,0.000885,0,0
0:1:42.858,384.922,21.7805,0,0.000885,0,0
0:1:43.560,388.561,21.9874,0,0.000885,0,0
0:1:44.260,391.786,22.1735,0,0.000885,0,0
0:1:44.962,394.188,22.3045,0,0.000885,0,0
0:1:45.657,397.533,22.4976,0,0.000885,0,0
0:1:46.364,400.291,22.6493,0,0.000885,0,0
0:1:47.070,403.689,22.8423,0,0.000885,0,0
0:1:47.774,407.035,23.0354,0,0.000885,0,0
0:1:48.476,410.024,23.2009,0,0.000885,0,0
0:1:49.172,413.369,23.3939,0,0.000885,0,0
0:1:49.870,416.127,23.5456,0,0.000885,0,0
0:1:50.561,418.707,23.6973,0,0.000885,0,0
0:1:51.264,422.341,23.8972,0,0.000885,0,0
0:1:51.973,425.686,24.0903,0,0.000885,0,0
0:1:52.677,428.444,24.242,0,0.000885,0,0
0:1:53.380,431.962,24.4419,0,0.000885,0,0
0:1:54.074,434.778,24.6005,0,0.000885,0,0
0:1:54.769,437.416,24.7522,0,0.000885,0,0
0:1:55.469,440.699,24.9383,0,0.000885,0,0
0:1:56.155,443.572,25.1038,0,0.000885,0,0
0:1:56.851,447.447,25.3175,0,0.000885,0,0
0:1:57.558,450.084,25.4692,0,0.000885,0,0
0:1:58.258,453.545,25.6623,0,0.000885,0,0
0:1:58.964,456.419,25.8278,0,0.000885,0,0
0:1:59.662,459.822,26.0208,0,0.000885,0,0
0:2:0.354,462.459,26.1725,0,0.000885,0,0
0:2:1.048,465.333,26.3311,0,0.000885,0,0
0:2:1.776,468.909,26.5379,0,0.000885,0,0
0:2:2.481,471.609,26.6896,0,0.000885,0,0
0:2:3.184,475.244,26.8964,0,0.000885,0,0
0:2:3.879,478.117,27.055,0,0.000885,0,0
0:2:4.573,481.347,27.2412,0,0.000885,0,0
0:2:5.262,483.926,27.386,0,0.000885,0,0
0:2:5.952,487.036,27.5583,0,0.000885,0,0
0:2:6.646,490.203,27.7376,0,0.000885,0,0
0:2:7.341,492.721,27.8824,0,0.000885,0,0
0:2:8.047,496.889,28.1168,0,0.000885,0,0
0:2:8.749,499.762,28.2823,0,0.000885,0,0
0:2:9.437,502.871,28.4547,0,0.000885,0,0
0:2:10.128,505.918,28.627,0,0.000885,0,0
0:2:10.823,508.85,28.7925,0,0.000885,0,0
0:2:11.513,511.141,28.9235,0,0.000885,0,0
0:2:12.204,514.833,29.1303,0,0.000885,0,0
0:2:12.912,518.178,29.3234,0,0.000885,0,0
0:2:13.612,521.051,29.4889,0,0.000885,0,0
0:2:14.308,524.041,29.6544,0,0.000885,0,0
0:2:15.001,527.621,29.8543,0,0.000885,0,0
0:2:15.689,530.201,30.006,0,0.000885,0,0
0:2:16.383,533.426,30.1852,0,0.000885,0,0
0:2:17.078,536.064,30.3369,0,0.000885,0,0
0:2:17.782,539.525,30.53,0,0.000885,0,0
0:2:18.485,542.634,30.7092,0,0.000885,0,0
0:2:19.176,545.628,30.8747,0,0.000885,0,0
0:2:19.865,548.559,31.0402,0,0.000885,0,0
0:2:20.570,551.548,31.2126,0,0.000885,0,0
0:2:21.259,553.897,31.3436,0,0.000885,0,0
0:2:21.951,557.589,31.5504,0,0.000885,0,0
0:2:22.656,561.285,31.7641,0,0.000885,0,0
0:2:23.357,564.337,31.9365,0,0.000885,0,0
0:2:24.060,567.326,32.102,0,0.000885,0,0
0:2:24.774,570.493,32.2813,0,0.000885,0,0
0:2:25.462,572.664,32.4054,0,0.000885,0,0
0:2:26.166,576.77,32.6398,0,0.000885,0,0
0:2:26.867,579.879,32.8121,0,0.000885,0,0
0:2:27.578,581.93,32.9294,0,0.000885,0,0
0:2:28.280,585.626,33.1362,0,0.000885,0,0
0:2:28.977,589.203,33.343,0,0.000885,0,0
0:2:29.675,592.374,33.5223,0,0.000885,0,0
0:2:30.378,594.954,33.6671,0,0.000885,0,0
0:2:31.072,597.774,33.8257,0,0.000885,0,0
0:2:31.768,601.235,34.0256,0,0.000885,0,0
0:2:32.478,604.171,34.1911,0,0.000885,0,0
0:2:33.181,607.049,34.3497,0,0.000885,0,0
0:2:33.881,611.155,34.5841,0,0.000885,0,0
0:2:34.572,613.739,34.7289,0,0.000885,0,0
0:2:35.268,616.617,34.8944,0,0.000885,0,0
0:2:35.966,619.668,35.0667,0,0.000885,0,0
0:2:36.658,622.484,35.2253,0,0.000885,0,0
0:2:37.366,625.771,35.4115,0,0.000885,0,0
0:2:38.072,629.41,35.6183,0,0.000885,0,0
0:2:38.772,632.288,35.7769,0,0.000885,0,0
0:2:39.468,635.282,35.9493,0,0.000885,0,0
0:2:40.168,637.924,36.1009,0,0.000885,0,0
0:2:40.866,641.505,36.3009,0,0.000885,0,0
0:2:41.562,643.56,36.4181,0,0.000885,0,0
0:2:42.263,648.079,36.6732,0,0.000885,0,0
0:2:42.969,650.366,36.8042,0,0.000885,0,0
0:2:43.670,653.359,36.9697,0,0.000885,0,0
0:2:44.367,656.237,37.1352,0,0.000885,0,0
0:2:45.063,659.173,37.3006,0,0.000885,0,0
0:2:45.776,663.105,37.5213,0,0.000885,0,0
0:2:46.474,665.16,37.6385,0,0.000885,0,0
0:2:47.173,667.331,37.7626,0,0.000885,0,0
0:2:47.881,670.147,37.9212,0,0.000885,0,0
0:2:48.585,671.793,38.0177,0,0.000885,0,0
0:2:49.276,672.616,38.0591,0,0.000885,0,0
0:2:49.975,673.496,38.1142,0,0.000885,0,0
0:2:50.667,669.973,37.9143,0,0.000885,0,0
0:2:51.356,643.618,36.4181,0,0.000885,0,0
0:2:52.053,571.725,32.3502,0,0.000885,0,0
0:2:52.756,477.534,27.0206,0,0.000885,0,0
0:2:52.798,477.534,27.0206,0,0.000885,0,0