File: DataFile2021-06-29_044044.csv
Test ID:,Date Tested:,Time:,Test Type:,Width (mm):,Depth (mm):,Height (mm):,Age (days):,Weight (kN):,Ramp Rate (MPa/s):,Load at Break (kN):,Stress at Break (MPa):
12,6/29/2021,04:40,Cube,150,150,150,7,8.37,0.01,72.9,3.24
Sample Time,Load (kN),Stress (MPa),Long. Strain,Trans. Strain,Chan1 Deflection (mm),Chan2 Deflection (mm)
0:0:10.447,9.55923,0.427475,0,0.000885,0,0
0:0:11.129,10.6179,0.468843,0,0.000885,0,0
0:0:11.838,11.6143,0.517107,0,0.000885,0,0
0:0:12.540,13.1979,0.586054,0,0.000885,0,0
0:0:13.236,15.1328,0.675686,0,0.000885,0,0
0:0:13.930,16.5963,0.737739,0,0.000885,0,0
0:0:14.635,18.1221,0.806687,0,0.000885,0,0
0:0:15.342,19.59,0.868739,0,0.000885,0,0
0:0:16.043,21.7029,0.965266,0,0.000885,0,0
0:0:16.742,23.6378,1.048,0,0.000885,0,0
0:0:17.437,25.8664,1.15142,0,0.000885,0,0
0:0:18.142,27.2142,1.20658,0,0.000885,0,0
0:0:18.837,28.5042,1.26864,0,0.000885,0,0
0:0:19.544,30.2657,1.34448,0,0.000885,0,0
0:0:20.238,30.8484,1.37206,0,0.000885,0,0
0:0:20.936,32.6099,1.4479,0,0.000885,0,0
0:0:21.632,33.8421,1.50306,0,0.000885,0,0
0:0:22.328,35.5413,1.5789,0,0.000885,0,0
0:0:23.038,37.0092,1.64785,0,0.000885,0,0
0:0:23.741,39.1177,1.73748,0,0.000885,0,0
0:0:24.440,40.8792,1.82022,0,0.000885,0,0
0:0:25.145,43.3435,1.92364,0,0.000885,0,0
0:0:25.841,44.2242,1.96501,0,0.000885,0,0
0:0:26.541,45.4519,2.02016,0,0.000885,0,0
0:0:27.237,46.9198,2.08222,0,0.000885,0,0
0:0:27.933,48.2677,2.14427,0,0.000885,0,0
0:0:28.630,49.7934,2.21322,0,0.000885,0,0
0:0:29.337,51.5549,2.28906,0,0.000885,0,0
0:0:30.032,53.432,2.3718,0,0.000885,0,0
0:0:30.742,54.6642,2.42695,0,0.000885,0,0
0:0:31.442,56.1855,2.4959,0,0.000885,0,0
0:0:32.137,57.947,2.57864,0,0.000885,0,0
0:0:32.842,59.9398,2.66138,0,0.000885,0,0
0:0:33.534,61.0563,2.71653,0,0.000885,0,0
0:0:34.244,62.6399,2.78548,0,0.000885,0,0
0:0:34.939,63.872,2.84064,0,0.000885,0,0
0:0:35.645,65.2777,2.90269,0,0.000885,0,0
0:0:36.345,67.1548,2.98543,0,0.000885,0,0
0:0:37.040,68.7384,3.05438,0,0.000885,0,0
0:0:37.740,70.0284,3.10954,0,0.000885,0,0
0:0:38.432,71.3183,3.17159,0,0.000885,0,0
0:0:39.143,72.3147,3.21296,0,0.000885,0,0
0:0:39.839,72.9019,3.24054,0,0.000885,0,0
0:0:40.541,71.4963,3.17848,0,0.000885,0,0
0:0:41.235,67.2705,2.99232,0,0.000885,0,0
0:0:41.930,66.5676,2.95785,0,0.000885,0,0
0:0:42.640,60.2334,2.67517,0,0.000885,0,0
0:0:43.333,58.2406,2.58553,0,0.000885,0,0
0:0:44.045,58.8856,2.62001,0,0.000885,0,0
0:0:44.743,58.3562,2.59243,0,0.000885,0,0
0:0:45.435,58.2406,2.58553,0,0.000885,0,0
0:0:46.138,55.6028,2.46832,0,0.000885,0,0
0:0:46.831,51.9641,2.30974,0,0.000885,0,0
0:0:47.531,52.1421,2.31664,0,0.000885,0,0
0:0:48.244,52.9027,2.35111,0,0.000885,0,0
0:0:48.942,53.9569,2.39938,0,0.000885,0,0
0:0:49.643,54.4863,2.42006,0,0.000885,0,0
0:0:50.346,55.1891,2.45453,0,0.000885,0,0
0:0:51.044,56.2478,2.5028,0,0.000885,0,0
0:0:51.743,56.4791,2.50969,0,0.000885,0,0
0:0:52.432,57.302,2.54417,0,0.000885,0,0
0:0:53.128,57.5956,2.55795,0,0.000885,0,0
0:0:53.841,57.4176,2.55106,0,0.000885,0,0
0:0:54.535,57.3598,2.55106,0,0.000885,0,0
0:0:55.241,57.1241,2.53727,0,0.000885,0,0
0:0:55.943,56.8928,2.53038,0,0.000885,0,0
0:0:56.636,56.7727,2.52348,0,0.000885,0,0
0:0:57.336,56.1277,2.4959,0,0.000885,0,0
0:0:58.041,55.5405,2.46832,0,0.000885,0,0
0:0:58.734,55.0734,2.44764,0,0.000885,0,0
0:0:59.447,54.6019,2.42695,0,0.000885,0,0
0:1:0.142,54.3083,2.41317,0,0.000885,0,0
0:1:0.836,53.0806,2.35801,0,0.000885,0,0
0:1:1.534,52.3155,2.32353,0,0.000885,0,0
0:1:2.227,52.1999,2.31664,0,0.000885,0,0
0:1:2.932,52.022,2.30974,0,0.000885,0,0
0:1:3.645,51.7284,2.29595,0,0.000885,0,0
0:1:4.342,51.7862,2.30285,0,0.000885,0,0
0:1:5.034,51.377,2.28216,0,0.000885,0,0
0:1:5.736,51.4971,2.28906,0,0.000885,0,0
0:1:6.435,50.5585,2.24769,0,0.000885,0,0
0:1:7.128,50.3806,2.2408,0,0.000885,0,0
0:1:7.824,49.9135,2.22011,0,0.000885,0,0
0:1:8.530,49.2062,2.18564,0,0.000885,0,0
0:1:9.242,48.6813,2.16495,0,0.000885,0,0
0:1:9.934,48.2098,2.14427,0,0.000885,0,0
0:1:10.642,48.2677,2.14427,0,0.000885,0,0
0:1:11.342,48.2098,2.14427,0,0.000885,0,0
0:1:12.036,48.6813,2.16495,0,0.000885,0,0
0:1:12.737,48.797,2.17185,0,0.000885,0,0
0:1:13.451,48.7392,2.16495,0,0.000885,0,0
0:1:14.146,49.1484,2.18564,0,0.000885,0,0
0:1:14.837,49.6199,2.20632,0,0.000885,0,0
0:1:15.544,49.1484,2.18564,0,0.000885,0,0
0:1:16.252,49.3263,2.19253,0,0.000885,0,0
0:1:16.946,49.6777,2.20632,0,0.000885,0,0
0:1:17.642,49.9135,2.22011,0,0.000885,0,0
0:1:18.335,49.9135,2.22011,0,0.000885,0,0
0:1:19.036,49.7934,2.21322,0,0.000885,0,0
0:1:19.733,50.2649,2.2339,0,0.000885,0,0
0:1:20.437,50.4962,2.24769,0,0.000885,0,0
0:1:21.151,51.0255,2.26838,0,0.000885,0,0
0:1:21.847,50.7898,2.25459,0,0.000885,0,0
0:1:22.545,51.0255,2.26838,0,0.000885,0,0
0:1:23.249,51.2613,2.27527,0,0.000885,0,0
0:1:23.934,51.4971,2.28906,0,0.000885,0,0
0:1:24.646,51.6127,2.29595,0,0.000885,0,0
0:1:25.340,51.5549,2.28906,0,0.000885,0,0
0:1:26.049,51.6127,2.29595,0,0.000885,0,0
0:1:26.746,51.3191,2.28216,0,0.000885,0,0
0:1:27.437,51.6127,2.29595,0,0.000885,0,0
0:1:28.145,51.0255,2.26838,0,0.000885,0,0
0:1:28.845,51.1412,2.27527,0,0.000885,0,0
0:1:29.539,51.2613,2.27527,0,0.000885,0,0
0:1:30.246,51.0255,2.26838,0,0.000885,0,0
0:1:30.945,50.8521,2.26148,0,0.000885,0,0
0:1:31.639,51.0255,2.26838,0,0.000885,0,0
0:1:32.339,51.4348,2.28906,0,0.000885,0,0
0:1:33.045,51.6127,2.29595,0,0.000885,0,0
0:1:33.740,51.6127,2.29595,0,0.000885,0,0
0:1:34.453,51.7284,2.29595,0,0.000885,0,0
0:1:35.149,51.9063,2.30974,0,0.000885,0,0
0:1:35.844,52.022,2.30974,0,0.000885,0,0
0:1:36.539,52.3734,2.33043,0,0.000885,0,0
0:1:37.234,52.3155,2.32353,0,0.000885,0,0
0:1:37.937,52.6091,2.33732,0,0.000885,0,0
0:1:38.651,52.5513,2.33732,0,0.000885,0,0
0:1:39.348,52.3734,2.33043,0,0.000885,0,0
0:1:40.039,52.3155,2.32353,0,0.000885,0,0
0:1:40.740,52.4935,2.33043,0,0.000885,0,0
0:1:41.438,52.787,2.34422,0,0.000885,0,0
0:1:42.133,52.4935,2.33043,0,0.000885,0,0
0:1:42.827,52.3734,2.33043,0,0.000885,0,0
0:1:43.534,52.2577,2.32353,0,0.000885,0,0
0:1:44.247,52.9027,2.35111,0,0.000885,0,0
0:1:44.939,52.9605,2.35111,0,0.000885,0,0
0:1:45.647,52.9605,2.35111,0,0.000885,0,0
0:1:46.346,52.8449,2.35111,0,0.000885,0,0
0:1:47.041,53.0184,2.35801,0,0.000885,0,0
0:1:47.752,52.6669,2.34422,0,0.000885,0,0
0:1:48.447,52.6669,2.34422,0,0.000885,0,0
0:1:49.141,52.5513,2.33732,0,0.000885,0,0
0:1:49.842,52.8449,2.35111,0,0.000885,0,0
0:1:50.538,53.1963,2.3649,0,0.000885,0,0
0:1:51.238,53.0184,2.35801,0,0.000885,0,0
0:1:51.931,52.8449,2.35111,0,0.000885,0,0
0:1:52.651,52.6669,2.34422,0,0.000885,0,0
0:1:53.352,52.2577,2.32353,0,0.000885,0,0
0:1:54.046,52.787,2.34422,0,0.000885,0,0
0:1:54.741,52.6091,2.33732,0,0.000885,0,0
0:1:55.442,52.4935,2.33043,0,0.000885,0,0
0:1:56.138,52.7248,2.34422,0,0.000885,0,0
0:1:56.833,53.0806,2.35801,0,0.000885,0,0
0:1:57.538,53.0806,2.35801,0,0.000885,0,0
0:1:58.236,52.7248,2.34422,0,0.000885,0,0
0:1:58.937,52.4935,2.33043,0,0.000885,0,0
0:1:59.652,52.3734,2.33043,0,0.000885,0,0
0:2:0.336,52.4356,2.33043,0,0.000885,0,0
0:2:1.035,52.2577,2.32353,0,0.000885,0,0
0:2:1.730,51.7862,2.30285,0,0.000885,0,0
0:2:2.432,51.4348,2.28906,0,0.000885,0,0
0:2:3.133,51.2613,2.27527,0,0.000885,0,0
0:2:3.831,51.377,2.28216,0,0.000885,0,0
0:2:4.553,51.0834,2.26838,0,0.000885,0,0
0:2:5.249,51.0255,2.26838,0,0.000885,0,0
0:2:5.942,50.9677,2.26838,0,0.000885,0,0
0:2:6.640,50.9099,2.26148,0,0.000885,0,0
0:2:7.335,50.8521,2.26148,0,0.000885,0,0
0:2:8.049,49.8512,2.21322,0,0.000885,0,0
0:2:8.751,48.0942,2.13737,0,0.000885,0,0
0:2:9.448,47.4492,2.1098,0,0.000885,0,0
0:2:10.148,47.5648,2.11669,0,0.000885,0,0
0:2:10.842,47.507,2.1098,0,0.000885,0,0
0:2:11.540,47.2134,2.09601,0,0.000885,0,0
0:2:12.234,47.4492,2.1098,0,0.000885,0,0
0:2:12.942,47.3291,2.1029,0,0.000885,0,0
0:2:13.647,47.2713,2.1029,0,0.000885,0,0
0:2:14.351,47.3914,2.1029,0,0.000885,0,0
0:2:15.036,47.0978,2.09601,0,0.000885,0,0
0:2:15.749,47.2134,2.09601,0,0.000885,0,0
0:2:16.441,47.8584,2.13048,0,0.000885,0,0
0:2:17.137,47.507,2.1098,0,0.000885,0,0
0:2:17.855,47.5648,2.11669,0,0.000885,0,0
0:2:18.551,47.6227,2.11669,0,0.000885,0,0
0:2:19.255,47.0355,2.08911,0,0.000885,0,0
0:2:19.943,47.2713,2.1029,0,0.000885,0,0
0:2:20.652,46.6841,2.07532,0,0.000885,0,0
0:2:21.350,46.6263,2.07532,0,0.000885,0,0
0:2:22.040,47.2713,2.1029,0,0.000885,0,0
0:2:22.750,46.8042,2.08222,0,0.000885,0,0
0:2:23.452,46.5684,2.06843,0,0.000885,0,0
0:2:24.154,46.5106,2.06843,0,0.000885,0,0
0:2:24.851,46.8042,2.08222,0,0.000885,0,0
0:2:25.551,46.5106,2.06843,0,0.000885,0,0
0:2:26.244,46.4528,2.06153,0,0.000885,0,0
0:2:26.938,46.3327,2.06153,0,0.000885,0,0
0:2:27.635,46.217,2.05464,0,0.000885,0,0
0:2:28.341,45.9813,2.04085,0,0.000885,0,0
0:2:29.057,45.9813,2.04085,0,0.000885,0,0
0:2:29.750,45.9234,2.04085,0,0.000885,0,0
0:2:30.442,46.0391,2.04774,0,0.000885,0,0
0:2:31.152,45.9813,2.04085,0,0.000885,0,0
0:2:31.850,45.9813,2.04085,0,0.000885,0,0
0:2:32.540,46.4528,2.06153,0,0.000885,0,0
0:2:33.242,45.9813,2.04085,0,0.000885,0,0
0:2:33.936,45.8078,2.03395,0,0.000885,0,0
0:2:34.654,45.4519,2.02016,0,0.000885,0,0
0:2:35.354,45.1628,2.00637,0,0.000885,0,0
0:2:36.051,36.9514,1.64095,0,0.000885,0,0
0:2:36.743,36.8313,1.63406,0,0.000885,0,0
0:2:37.451,37.3606,1.66164,0,0.000885,0,0
0:2:38.158,37.3028,1.65474,0,0.000885,0,0
0:2:38.851,37.3606,1.66164,0,0.000885,0,0
0:2:39.554,37.4763,1.66853,0,0.000885,0,0
0:2:40.258,37.3028,1.65474,0,0.000885,0,0
0:2:40.943,37.5385,1.66853,0,0.000885,0,0
0:2:41.641,37.7698,1.67543,0,0.000885,0,0
0:2:42.335,37.3028,1.65474,0,0.000885,0,0
0:2:43.056,37.5964,1.66853,0,0.000885,0,0
0:2:43.752,37.89,1.68232,0,0.000885,0,0
0:2:44.445,37.6542,1.67543,0,0.000885,0,0
0:2:45.157,37.5385,1.66853,0,0.000885,0,0
0:2:45.853,37.4763,1.66853,0,0.000885,0,0
0:2:46.552,37.712,1.67543,0,0.000885,0,0
0:2:47.243,37.245,1.65474,0,0.000885,0,0
0:2:47.952,37.3028,1.65474,0,0.000885,0,0
0:2:48.654,37.3028,1.65474,0,0.000885,0,0
0:2:49.358,36.8891,1.64095,0,0.000885,0,0
0:2:50.056,37.0092,1.64785,0,0.000885,0,0
0:2:50.755,36.9514,1.64095,0,0.000885,0,0
0:2:51.452,36.8891,1.64095,0,0.000885,0,0
0:2:52.145,36.8313,1.63406,0,0.000885,0,0
0:2:52.304,36.8891,1.64095,0,0.000885,0,0