File: DataFile2021-06-07_051301.csv
Test ID:,Date Tested:,Time:,Test Type:,Diameter Avg. (mm):,Cyl. Corr. Factor:,Height (mm):,Age (days):,Weight (kN):,Break Type:,Ramp Rate (MPa/s):,Load at Break (kN):,Stress at Break (MPa):
12,6/7/2021,05:13,Cylinder,100,1,200,0,3.6,3,0.25,692.57,88.18
Sample Time,Load (kN),Stress (MPa),Long. Strain,Trans. Strain,Chan1 Deflection (mm),Chan2 Deflection (mm)
0:0:13.818,5.33787,0.682581,0,0.000885,0,0
0:0:15.307,12.5529,1.59958,0,0.000885,0,0
0:0:16.793,11.9657,1.52374,0,0.000885,0,0
0:0:18.281,13.0778,1.66853,0,0.000885,0,0
0:0:19.792,16.1293,2.05464,0,0.000885,0,0
0:0:21.300,20.235,2.57864,0,0.000885,0,0
0:0:22.791,22.637,2.88201,0,0.000885,0,0
0:0:24.282,25.515,3.24743,0,0.000885,0,0
0:0:25.798,28.4464,3.61975,0,0.000885,0,0
0:0:27.288,31.3778,3.99206,0,0.000885,0,0
0:0:28.782,34.3091,4.37128,0,0.000885,0,0
0:0:30.297,37.4763,4.77117,0,0.000885,0,0
0:0:31.790,40.5277,5.15728,0,0.000885,0,0
0:0:33.284,43.6371,5.55717,0,0.000885,0,0
0:0:34.791,46.9198,5.97086,0,0.000885,0,0
0:0:36.298,49.3842,6.28802,0,0.000885,0,0
0:0:37.791,52.4935,6.68102,0,0.000885,0,0
0:0:39.283,55.4827,7.06713,0,0.000885,0,0
0:0:40.798,57.7691,7.35671,0,0.000885,0,0
0:0:42.289,60.9362,7.7566,0,0.000885,0,0
0:0:43.780,64.0455,8.1565,0,0.000885,0,0
0:0:45.298,67.0391,8.53571,0,0.000885,0,0
0:0:46.789,70.144,8.92871,0,0.000885,0,0
0:0:48.283,72.9019,9.28034,0,0.000885,0,0
0:0:49.793,75.4819,9.61129,0,0.000885,0,0
0:0:51.292,78.8269,10.0388,0,0.000885,0,0
0:0:52.786,81.7583,10.4111,0,0.000885,0,0
0:0:54.281,84.574,10.7696,0,0.000885,0,0
0:0:55.797,88.2082,11.2316,0,0.000885,0,0
0:0:57.288,91.024,11.5901,0,0.000885,0,0
0:0:58.781,93.5461,11.9141,0,0.000885,0,0
0:1:0.291,96.304,12.2589,0,0.000885,0,0
0:1:1.793,99.8225,12.707,0,0.000885,0,0
0:1:3.283,102.58,13.0587,0,0.000885,0,0
0:1:4.793,105.454,13.4241,0,0.000885,0,0
0:1:6.300,108.328,13.7895,0,0.000885,0,0
0:1:7.791,112.024,14.2653,0,0.000885,0,0
0:1:9.283,113.839,14.4928,0,0.000885,0,0
0:1:10.799,116.948,14.8927,0,0.000885,0,0
0:1:12.292,119.942,15.2719,0,0.000885,0,0
0:1:13.785,122.344,15.5753,0,0.000885,0,0
0:1:15.298,125.983,16.0372,0,0.000885,0,0
0:1:16.790,128.736,16.3888,0,0.000885,0,0
0:1:18.281,131.845,16.7887,0,0.000885,0,0
0:1:19.791,135.07,17.1955,0,0.000885,0,0
0:1:21.294,138.237,17.6023,0,0.000885,0,0
0:1:22.788,140.702,17.9126,0,0.000885,0,0
0:1:24.290,142.988,18.2091,0,0.000885,0,0
0:1:25.805,146.627,18.671,0,0.000885,0,0
0:1:27.298,150.03,19.1054,0,0.000885,0,0
0:1:28.789,151.551,19.2984,0,0.000885,0,0
0:1:30.298,155.425,19.788,0,0.000885,0,0
0:1:31.796,157.885,20.1051,0,0.000885,0,0
0:1:33.284,160.585,20.443,0,0.000885,0,0
0:1:34.796,164.575,20.9532,0,0.000885,0,0
0:1:36.294,166.92,21.2496,0,0.000885,0,0
0:1:37.789,170.265,21.6771,0,0.000885,0,0
0:1:39.294,173.312,22.0701,0,0.000885,0,0
0:1:40.808,175.598,22.3597,0,0.000885,0,0
0:1:42.302,178.534,22.732,0,0.000885,0,0
0:1:43.793,181.932,23.1664,0,0.000885,0,0
0:1:45.303,184.632,23.5111,0,0.000885,0,0
0:1:46.801,187.684,23.8972,0,0.000885,0,0
0:1:48.291,190.086,24.2006,0,0.000885,0,0
0:1:49.799,193.489,24.635,0,0.000885,0,0
0:1:51.286,196.829,25.0624,0,0.000885,0,0
0:1:52.776,199.529,25.4072,0,0.000885,0,0
0:1:54.272,202.403,25.7726,0,0.000885,0,0
0:1:55.776,205.334,26.1449,0,0.000885,0,0
0:1:57.276,208.092,26.4966,0,0.000885,0,0
0:1:58.777,211.202,26.8896,0,0.000885,0,0
0:2:0.295,214.133,27.2619,0,0.000885,0,0
0:2:1.781,216.891,27.6135,0,0.000885,0,0
0:2:3.261,219.644,27.9651,0,0.000885,0,0
0:2:4.751,222.638,28.3443,0,0.000885,0,0
0:2:6.246,225.805,28.7511,0,0.000885,0,0
0:2:7.727,229.324,29.1993,0,0.000885,0,0
0:2:9.214,231.494,29.4751,0,0.000885,0,0
0:2:10.718,234.897,29.9095,0,0.000885,0,0
0:2:12.201,237.241,30.2059,0,0.000885,0,0
0:2:13.681,240.293,30.592,0,0.000885,0,0
0:2:15.182,243.224,30.9712,0,0.000885,0,0
0:2:16.669,246.334,31.3643,0,0.000885,0,0
0:2:18.169,249.501,31.7641,0,0.000885,0,0
0:2:19.678,252.316,32.1227,0,0.000885,0,0
0:2:21.188,255.128,32.4812,0,0.000885,0,0
0:2:22.690,258.179,32.8742,0,0.000885,0,0
0:2:24.178,260.879,33.2189,0,0.000885,0,0
0:2:25.676,264.104,33.6257,0,0.000885,0,0
0:2:27.177,267.036,33.998,0,0.000885,0,0
0:2:28.670,270.318,34.4186,0,0.000885,0,0
0:2:30.173,272.547,34.7013,0,0.000885,0,0
0:2:31.688,275.892,35.1288,0,0.000885,0,0
0:2:33.190,278.823,35.5011,0,0.000885,0,0
0:2:34.694,281.581,35.8527,0,0.000885,0,0
0:2:36.185,284.633,36.2388,0,0.000885,0,0
0:2:37.679,287.564,36.6112,0,0.000885,0,0
0:2:39.181,290.673,37.0111,0,0.000885,0,0
0:2:40.685,293.721,37.3972,0,0.000885,0,0
0:2:42.176,296.243,37.7212,0,0.000885,0,0
0:2:43.656,299.058,38.0797,0,0.000885,0,0
0:2:45.156,302.697,38.5417,0,0.000885,0,0
0:2:46.644,305.157,38.852,0,0.000885,0,0
0:2:48.123,308.56,39.2863,0,0.000885,0,0
0:2:49.615,310.788,39.569,0,0.000885,0,0
0:2:51.109,313.898,39.9689,0,0.000885,0,0
0:2:52.590,316.713,40.3274,0,0.000885,0,0
0:2:54.077,319.645,40.6998,0,0.000885,0,0
0:2:55.585,322.812,41.0996,0,0.000885,0,0
0:2:57.082,325.57,41.4513,0,0.000885,0,0
0:2:58.595,328.795,41.865,0,0.000885,0,0
0:3:0.094,331.962,42.2649,0,0.000885,0,0
0:3:1.598,334.6,42.6027,0,0.000885,0,0
0:3:3.098,337.945,43.0302,0,0.000885,0,0
0:3:4.597,340.876,43.4025,0,0.000885,0,0
0:3:6.089,343.283,43.7059,0,0.000885,0,0
0:3:7.599,346.623,44.1333,0,0.000885,0,0
0:3:9.085,349.617,44.5126,0,0.000885,0,0
0:3:10.589,352.077,44.8297,0,0.000885,0,0
0:3:12.099,354.892,45.1882,0,0.000885,0,0
0:3:13.599,357.944,45.5743,0,0.000885,0,0
0:3:15.103,360.76,45.9329,0,0.000885,0,0
0:3:16.601,364.1,46.3603,0,0.000885,0,0
0:3:18.093,366.391,46.6499,0,0.000885,0,0
0:3:19.605,369.732,47.0774,0,0.000885,0,0
0:3:21.100,373.192,47.5187,0,0.000885,0,0
0:3:22.601,376.066,47.8841,0,0.000885,0,0
0:3:24.104,378.824,48.2357,0,0.000885,0,0
0:3:25.610,381.813,48.6149,0,0.000885,0,0
0:3:27.090,384.571,48.9666,0,0.000885,0,0
0:3:28.587,387.738,49.3665,0,0.000885,0,0
0:3:30.091,390.612,49.7319,0,0.000885,0,0
0:3:31.584,393.192,50.0628,0,0.000885,0,0
0:3:33.067,396.537,50.4903,0,0.000885,0,0
0:3:34.566,399.295,50.8419,0,0.000885,0,0
0:3:36.057,401.754,51.1522,0,0.000885,0,0
0:3:37.540,404.922,51.559,0,0.000885,0,0
0:3:39.027,408.44,52.0072,0,0.000885,0,0
0:3:40.532,410.437,52.2554,0,0.000885,0,0
0:3:42.016,413.956,52.7035,0,0.000885,0,0
0:3:43.500,416.3,53.0069,0,0.000885,0,0
0:3:44.999,419.997,53.4757,0,0.000885,0,0
0:3:46.497,422.461,53.786,0,0.000885,0,0
0:3:47.986,425.277,54.1445,0,0.000885,0,0
0:3:49.485,428.502,54.5582,0,0.000885,0,0
0:3:51.004,431.611,54.9512,0,0.000885,0,0
0:3:52.494,434.422,55.3097,0,0.000885,0,0
0:3:53.985,438.003,55.7648,0,0.000885,0,0
0:3:55.492,440.174,56.0475,0,0.000885,0,0
0:3:56.986,443.341,56.4474,0,0.000885,0,0
0:3:58.487,446.388,56.8335,0,0.000885,0,0
0:3:59.992,449.382,57.2196,0,0.000885,0,0
0:4:1.498,452.255,57.585,0,0.000885,0,0
0:4:3.001,454.542,57.8746,0,0.000885,0,0
0:4:4.492,458.469,58.371,0,0.000885,0,0
0:4:5.987,460.876,58.6813,0,0.000885,0,0
0:4:7.499,463.927,59.0674,0,0.000885,0,0
0:4:9.000,466.916,59.4466,0,0.000885,0,0
0:4:10.505,470.084,59.8534,0,0.000885,0,0
0:4:11.993,472.899,60.2119,0,0.000885,0,0
0:4:13.482,475.479,60.5429,0,0.000885,0,0
0:4:14.985,478.646,60.9428,0,0.000885,0,0
0:4:16.499,481.636,61.322,0,0.000885,0,0
0:4:17.989,484.22,61.6529,0,0.000885,0,0
0:4:19.509,487.387,62.0528,0,0.000885,0,0
0:4:21.003,489.789,62.3631,0,0.000885,0,0
0:4:22.505,493.486,62.8319,0,0.000885,0,0
0:4:24.008,496.711,63.2456,0,0.000885,0,0
0:4:25.514,499.175,63.5559,0,0.000885,0,0
0:4:27.007,502.636,63.9971,0,0.000885,0,0
0:4:28.486,505.451,64.3557,0,0.000885,0,0
0:4:29.992,508.205,64.7073,0,0.000885,0,0
0:4:31.483,511.314,65.1003,0,0.000885,0,0
0:4:32.965,513.894,65.4312,0,0.000885,0,0
0:4:34.465,516.71,65.7898,0,0.000885,0,0
0:4:35.960,520.055,66.2172,0,0.000885,0,0
0:4:37.441,522.399,66.5137,0,0.000885,0,0
0:4:38.933,525.744,66.9412,0,0.000885,0,0
0:4:40.441,528.676,67.3135,0,0.000885,0,0
0:4:41.923,531.607,67.6858,0,0.000885,0,0
0:4:43.405,534.481,68.0513,0,0.000885,0,0
0:4:44.911,537.238,68.4029,0,0.000885,0,0
0:4:46.399,540.348,68.7959,0,0.000885,0,0
0:4:47.903,543.106,69.1475,0,0.000885,0,0
0:4:49.402,545.979,69.5129,0,0.000885,0,0
0:4:50.904,549.44,69.9542,0,0.000885,0,0
0:4:52.393,552.136,70.2989,0,0.000885,0,0
0:4:53.875,555.067,70.6713,0,0.000885,0,0
0:4:55.381,558.292,71.0849,0,0.000885,0,0
0:4:56.865,561.285,71.4642,0,0.000885,0,0
0:4:58.343,563.572,71.7537,0,0.000885,0,0
0:4:59.852,566.917,72.1812,0,0.000885,0,0
0:5:1.332,569.613,72.526,0,0.000885,0,0
0:5:2.818,572.486,72.8914,0,0.000885,0,0
0:5:4.316,575.773,73.312,0,0.000885,0,0
0:5:5.805,578.353,73.636,0,0.000885,0,0
0:5:7.287,581.169,73.9945,0,0.000885,0,0
0:5:8.791,584.567,74.4289,0,0.000885,0,0
0:5:10.292,587.383,74.7874,0,0.000885,0,0
0:5:11.784,589.968,75.1184,0,0.000885,0,0
0:5:13.274,593.193,75.5252,0,0.000885,0,0
0:5:14.781,596.422,75.9389,0,0.000885,0,0
0:5:16.306,598.828,76.2422,0,0.000885,0,0
0:5:17.805,601.764,76.6214,0,0.000885,0,0
0:5:19.306,604.055,76.911,0,0.000885,0,0
0:5:20.811,607.694,77.373,0,0.000885,0,0
0:5:22.312,611.8,77.897,0,0.000885,0,0
0:5:23.807,613.503,78.1107,0,0.000885,0,0
0:5:25.321,617.026,78.5589,0,0.000885,0,0
0:5:26.809,619.842,78.9243,0,0.000885,0,0
0:5:28.297,622.484,79.2552,0,0.000885,0,0
0:5:29.809,624.303,79.4897,0,0.000885,0,0
0:5:31.295,628.823,80.0619,0,0.000885,0,0
0:5:32.783,630.469,80.2757,0,0.000885,0,0
0:5:34.285,634.637,80.8066,0,0.000885,0,0
0:5:35.786,637.51,81.172,0,0.000885,0,0
0:5:37.274,640.152,81.5098,0,0.000885,0,0
0:5:38.760,643.44,81.9235,0,0.000885,0,0
0:5:40.272,646.14,82.2682,0,0.000885,0,0
0:5:41.759,648.666,82.5923,0,0.000885,0,0
0:5:43.249,651.66,82.9715,0,0.000885,0,0
0:5:44.761,654.827,83.3783,0,0.000885,0,0
0:5:46.250,657.585,83.7299,0,0.000885,0,0
0:5:47.736,660.227,84.0609,0,0.000885,0,0
0:5:49.244,664.395,84.5918,0,0.000885,0,0
0:5:50.742,666.215,84.8262,0,0.000885,0,0
0:5:52.231,670.267,85.3433,0,0.000885,0,0
0:5:53.719,672.673,85.6467,0,0.000885,0,0
0:5:55.229,675.547,86.0121,0,0.000885,0,0
0:5:56.715,678.189,86.3499,0,0.000885,0,0
0:5:58.211,681.476,86.7705,0,0.000885,0,0
0:5:59.717,683.589,87.0394,0,0.000885,0,0
0:6:1.212,685.293,87.2532,0,0.000885,0,0
0:6:2.705,688.402,87.653,0,0.000885,0,0
0:6:4.215,693.215,88.2598,0,0.000885,0,0
0:6:5.705,671.499,85.495,0,0.000885,0,0
0:6:6.124,618.374,78.7312,0,0.000885,0,0