File: DataFile2021-06-29_054815.csv
Test ID:,Date Tested:,Time:,Test Type:,Diameter Avg. (mm):,Cyl. Corr. Factor:,Height (mm):,Age (days):,Weight (kN):,Break Type:,Ramp Rate (MPa/s):,Load at Break (kN):,Stress at Break (MPa):
12,6/29/2021,05:48,Cylinder,100,1,200,0,3.6,3,0.22,223.63,28.48
Sample Time,Load (kN),Stress (MPa),Long. Strain,Trans. Strain,Chan1 Deflection (mm),Chan2 Deflection (mm)
0:0:20.703,8.26924,1.0549,0,0.000885,0,0
0:0:21.206,14.0742,1.79264,0,0.000885,0,0
0:0:21.715,13.4292,1.7099,0,0.000885,0,0
0:0:22.231,13.1356,1.67543,0,0.000885,0,0
0:0:22.727,12.7842,1.62716,0,0.000885,0,0
0:0:23.231,12.7842,1.62716,0,0.000885,0,0
0:0:23.729,12.9043,1.64095,0,0.000885,0,0
0:0:24.224,12.6107,1.60648,0,0.000885,0,0
0:0:24.729,12.9043,1.64095,0,0.000885,0,0
0:0:25.234,13.1356,1.67543,0,0.000885,0,0
0:0:25.729,14.2521,1.81332,0,0.000885,0,0
0:0:26.234,14.7814,1.88227,0,0.000885,0,0
0:0:26.740,16.1871,2.06153,0,0.000885,0,0
0:0:27.244,17.3036,2.20632,0,0.000885,0,0
0:0:27.744,18.945,2.41317,0,0.000885,0,0
0:0:28.241,20.2928,2.58553,0,0.000885,0,0
0:0:28.738,21.4671,2.73032,0,0.000885,0,0
0:0:29.234,22.5213,2.86822,0,0.000885,0,0
0:0:29.732,24.1049,3.06817,0,0.000885,0,0
0:0:30.229,24.5141,3.12333,0,0.000885,0,0
0:0:30.727,24.87,3.16469,0,0.000885,0,0
0:0:31.232,25.6885,3.26811,0,0.000885,0,0
0:0:31.740,26.805,3.4129,0,0.000885,0,0
0:0:32.242,27.1564,3.45427,0,0.000885,0,0
0:0:32.741,28.5042,3.62664,0,0.000885,0,0
0:0:33.239,29.9721,3.8128,0,0.000885,0,0
0:0:33.736,31.0263,3.9507,0,0.000885,0,0
0:0:34.235,31.8493,4.05412,0,0.000885,0,0
0:0:34.734,33.0191,4.2058,0,0.000885,0,0
0:0:35.232,34.1357,4.3437,0,0.000885,0,0
0:0:35.729,34.8385,4.43333,0,0.000885,0,0
0:0:36.229,36.1863,4.6057,0,0.000885,0,0
0:0:36.737,37.067,4.72291,0,0.000885,0,0
0:0:37.240,37.4763,4.77117,0,0.000885,0,0
0:0:37.744,38.5928,4.91596,0,0.000885,0,0
0:0:38.241,39.4735,5.02628,0,0.000885,0,0
0:0:38.739,40.4699,5.15038,0,0.000885,0,0
0:0:39.235,41.5241,5.28828,0,0.000885,0,0
0:0:39.734,42.9921,5.47444,0,0.000885,0,0
0:0:40.231,43.4013,5.5227,0,0.000885,0,0
0:0:40.729,44.3399,5.64681,0,0.000885,0,0
0:0:41.237,45.8078,5.83296,0,0.000885,0,0
0:0:41.742,46.6263,5.93639,0,0.000885,0,0
0:0:42.247,47.2134,6.01223,0,0.000885,0,0
0:0:42.750,48.6191,6.19149,0,0.000885,0,0
0:0:43.248,49.6777,6.32249,0,0.000885,0,0
0:0:43.746,50.087,6.37765,0,0.000885,0,0
0:0:44.243,51.5549,6.56381,0,0.000885,0,0
0:0:44.742,52.4935,6.68102,0,0.000885,0,0
0:0:45.239,53.4899,6.81202,0,0.000885,0,0
0:0:45.735,53.8991,6.86028,0,0.000885,0,0
0:0:46.243,55.367,7.04644,0,0.000885,0,0
0:0:46.748,56.4791,7.19123,0,0.000885,0,0
0:0:47.252,57.4176,7.30844,0,0.000885,0,0
0:0:47.751,58.5341,7.45323,0,0.000885,0,0
0:0:48.249,59.7663,7.61181,0,0.000885,0,0
0:0:48.746,60.2912,7.67386,0,0.000885,0,0
0:0:49.243,60.8784,7.74971,0,0.000885,0,0
0:0:49.742,62.1683,7.91518,0,0.000885,0,0
0:0:50.239,63.1069,8.03239,0,0.000885,0,0
0:0:50.738,64.1033,8.16339,0,0.000885,0,0
0:0:51.241,65.2777,8.30818,0,0.000885,0,0
0:0:51.748,66.3319,8.44608,0,0.000885,0,0
0:0:52.251,66.9769,8.52881,0,0.000885,0,0
0:0:52.751,68.0934,8.66671,0,0.000885,0,0
0:0:53.249,69.032,8.79082,0,0.000885,0,0
0:0:53.746,70.0862,8.92182,0,0.000885,0,0
0:0:54.246,71.0826,9.05282,0,0.000885,0,0
0:0:54.742,72.1413,9.18382,0,0.000885,0,0
0:0:55.239,72.6661,9.25276,0,0.000885,0,0
0:0:55.738,74.4276,9.4734,0,0.000885,0,0
0:0:56.235,74.957,9.54234,0,0.000885,0,0
0:0:56.742,75.8956,9.66645,0,0.000885,0,0
0:0:57.247,77.1233,9.81813,0,0.000885,0,0
0:0:57.750,77.6526,9.88708,0,0.000885,0,0
0:0:58.249,78.8269,10.0388,0,0.000885,0,0
0:0:58.746,80.0591,10.1905,0,0.000885,0,0
0:0:59.242,80.7619,10.2801,0,0.000885,0,0
0:0:59.741,81.5848,10.3904,0,0.000885,0,0
0:1:0.237,82.1675,10.4593,0,0.000885,0,0
0:1:0.736,84.3383,10.7351,0,0.000885,0,0
0:1:1.241,84.752,10.7903,0,0.000885,0,0
0:1:1.748,86.4512,11.004,0,0.000885,0,0
0:1:2.250,86.6869,11.0385,0,0.000885,0,0
0:1:2.748,87.3898,11.1281,0,0.000885,0,0
0:1:3.245,88.7954,11.3074,0,0.000885,0,0
0:1:3.742,89.6183,11.4108,0,0.000885,0,0
0:1:4.239,91.2597,11.6177,0,0.000885,0,0
0:1:4.736,91.6111,11.6659,0,0.000885,0,0
0:1:5.234,92.4919,11.7762,0,0.000885,0,0
0:1:5.732,93.6662,11.9279,0,0.000885,0,0
0:1:6.238,94.7783,12.0658,0,0.000885,0,0
0:1:6.745,95.3076,12.1348,0,0.000885,0,0
0:1:7.248,96.949,12.3416,0,0.000885,0,0
0:1:7.744,97.8876,12.4657,0,0.000885,0,0
0:1:8.243,98.5326,12.5485,0,0.000885,0,0
0:1:8.739,99.3555,12.6519,0,0.000885,0,0
0:1:9.239,100.588,12.8036,0,0.000885,0,0
0:1:9.736,101.522,12.9277,0,0.000885,0,0
0:1:10.233,101.993,12.9828,0,0.000885,0,0
0:1:10.730,103.11,13.1276,0,0.000885,0,0
0:1:11.229,104.982,13.3689,0,0.000885,0,0
0:1:11.737,105.57,13.4448,0,0.000885,0,0
0:1:12.241,106.215,13.5206,0,0.000885,0,0
0:1:12.744,107.389,13.6723,0,0.000885,0,0
0:1:13.242,108.328,13.7895,0,0.000885,0,0
0:1:13.740,109.266,13.9136,0,0.000885,0,0
0:1:14.237,110.792,14.1067,0,0.000885,0,0
0:1:14.734,111.023,14.1343,0,0.000885,0,0
0:1:15.230,112.024,14.2653,0,0.000885,0,0
0:1:15.729,113.901,14.4997,0,0.000885,0,0
0:1:16.228,114.72,14.61,0,0.000885,0,0
0:1:16.734,115.071,14.6514,0,0.000885,0,0
0:1:17.239,116.01,14.7686,0,0.000885,0,0
0:1:17.742,116.833,14.8789,0,0.000885,0,0
0:1:18.239,117.651,14.9823,0,0.000885,0,0
0:1:18.738,119.003,15.1547,0,0.000885,0,0
0:1:19.234,120.293,15.3133,0,0.000885,0,0
0:1:19.733,121.405,15.458,0,0.000885,0,0
0:1:20.230,122.05,15.5408,0,0.000885,0,0
0:1:20.725,123.518,15.7269,0,0.000885,0,0
0:1:21.233,123.985,15.789,0,0.000885,0,0
0:1:21.737,124.924,15.9062,0,0.000885,0,0
0:1:22.241,126.156,16.0648,0,0.000885,0,0
0:1:22.740,126.743,16.1406,0,0.000885,0,0
0:1:23.236,127.86,16.2785,0,0.000885,0,0
0:1:23.734,129.03,16.4302,0,0.000885,0,0
0:1:24.232,130.555,16.6233,0,0.000885,0,0
0:1:24.737,131.258,16.7129,0,0.000885,0,0
0:1:25.237,131.903,16.7956,0,0.000885,0,0
0:1:25.734,132.668,16.8922,0,0.000885,0,0
0:1:26.236,133.549,17.0025,0,0.000885,0,0
0:1:26.742,135.012,17.1886,0,0.000885,0,0
0:1:27.246,136.187,17.3403,0,0.000885,0,0
0:1:27.747,136.832,17.4231,0,0.000885,0,0
0:1:28.244,137.299,17.4851,0,0.000885,0,0
0:1:28.742,138.651,17.6506,0,0.000885,0,0
0:1:29.241,139.883,17.8092,0,0.000885,0,0
0:1:29.737,140.937,17.9471,0,0.000885,0,0
0:1:30.236,141.876,18.0643,0,0.000885,0,0
0:1:30.734,142.695,18.1677,0,0.000885,0,0
0:1:31.230,143.344,18.2504,0,0.000885,0,0
0:1:31.737,144.398,18.3883,0,0.000885,0,0
0:1:32.241,145.804,18.5676,0,0.000885,0,0
0:1:32.745,147.156,18.7331,0,0.000885,0,0
0:1:33.242,147.623,18.7951,0,0.000885,0,0
0:1:33.740,148.797,18.9468,0,0.000885,0,0
0:1:34.236,149.558,19.0433,0,0.000885,0,0
0:1:34.734,150.03,19.1054,0,0.000885,0,0
0:1:35.230,151.493,19.2915,0,0.000885,0,0
0:1:35.724,152.552,19.4225,0,0.000885,0,0
0:1:36.219,153.197,19.5053,0,0.000885,0,0
0:1:36.727,154.602,19.6845,0,0.000885,0,0
0:1:37.235,155.719,19.8293,0,0.000885,0,0
0:1:37.740,156.48,19.9258,0,0.000885,0,0
0:1:38.238,157.067,20.0017,0,0.000885,0,0
0:1:38.736,158.53,20.1878,0,0.000885,0,0
0:1:39.232,160.114,20.3878,0,0.000885,0,0
0:1:39.738,160.292,20.4085,0,0.000885,0,0
0:1:40.235,161.115,20.5119,0,0.000885,0,0
0:1:40.734,161.933,20.6153,0,0.000885,0,0
0:1:41.239,163.281,20.7877,0,0.000885,0,0
0:1:41.746,164.455,20.9394,0,0.000885,0,0
0:1:42.248,165.1,21.0221,0,0.000885,0,0
0:1:42.746,166.51,21.2014,0,0.000885,0,0
0:1:43.244,167.449,21.3186,0,0.000885,0,0
0:1:43.741,167.916,21.3806,0,0.000885,0,0
0:1:44.241,169.206,21.5461,0,0.000885,0,0
0:1:44.737,170.087,21.6564,0,0.000885,0,0
0:1:45.235,171.083,21.7805,0,0.000885,0,0
0:1:45.734,172.2,21.9253,0,0.000885,0,0
0:1:46.233,172.551,21.9667,0,0.000885,0,0
0:1:46.739,174.077,22.1666,0,0.000885,0,0
0:1:47.245,175.189,22.3045,0,0.000885,0,0
0:1:47.748,176.305,22.4493,0,0.000885,0,0
0:1:48.245,177.008,22.539,0,0.000885,0,0
0:1:48.745,177.889,22.6493,0,0.000885,0,0
0:1:49.242,179.179,22.8148,0,0.000885,0,0
0:1:49.739,179.997,22.9182,0,0.000885,0,0
0:1:50.237,181.172,23.0699,0,0.000885,0,0
0:1:50.734,182.052,23.1802,0,0.000885,0,0
0:1:51.240,183.164,23.3181,0,0.000885,0,0
0:1:51.747,184.281,23.4629,0,0.000885,0,0
0:1:52.252,184.806,23.5318,0,0.000885,0,0
0:1:52.756,186.332,23.7249,0,0.000885,0,0
0:1:53.254,186.919,23.8007,0,0.000885,0,0
0:1:53.752,187.799,23.911,0,0.000885,0,0
0:1:54.249,188.974,24.0627,0,0.000885,0,0
0:1:54.747,189.792,24.1661,0,0.000885,0,0
0:1:55.245,190.615,24.2695,0,0.000885,0,0
0:1:55.742,191.847,24.4281,0,0.000885,0,0
0:1:56.249,192.372,24.4971,0,0.000885,0,0
0:1:56.750,194.192,24.7246,0,0.000885,0,0
0:1:57.251,194.721,24.7935,0,0.000885,0,0
0:1:57.745,196.011,24.959,0,0.000885,0,0
0:1:58.238,196.829,25.0624,0,0.000885,0,0
0:1:58.732,197.652,25.1659,0,0.000885,0,0
0:1:59.236,198.707,25.2969,0,0.000885,0,0
0:1:59.740,199.178,25.3589,0,0.000885,0,0
0:2:0.235,200.641,25.5451,0,0.000885,0,0
0:2:0.728,201.642,25.6761,0,0.000885,0,0
0:2:1.237,202.581,25.7933,0,0.000885,0,0
0:2:1.741,203.164,25.8691,0,0.000885,0,0
0:2:2.240,204.28,26.007,0,0.000885,0,0
0:2:2.738,204.925,26.0898,0,0.000885,0,0
0:2:3.234,205.922,26.2208,0,0.000885,0,0
0:2:3.727,207.154,26.3724,0,0.000885,0,0
0:2:4.232,207.799,26.4552,0,0.000885,0,0
0:2:4.725,209.146,26.6276,0,0.000885,0,0
0:2:5.229,210.027,26.7448,0,0.000885,0,0
0:2:5.724,211.024,26.8689,0,0.000885,0,0
0:2:6.226,211.789,26.9654,0,0.000885,0,0
0:2:6.728,212.901,27.1102,0,0.000885,0,0
0:2:7.229,213.724,27.2136,0,0.000885,0,0
0:2:7.730,214.6,27.3239,0,0.000885,0,0
0:2:8.224,215.481,27.4342,0,0.000885,0,0
0:2:8.717,216.771,27.5997,0,0.000885,0,0
0:2:9.233,217.651,27.71,0,0.000885,0,0
0:2:9.727,218.768,27.8548,0,0.000885,0,0
0:2:10.230,219.293,27.9238,0,0.000885,0,0
0:2:10.722,220,28.0134,0,0.000885,0,0
0:2:11.225,220.876,28.1237,0,0.000885,0,0
0:2:11.727,221.348,28.1858,0,0.000885,0,0
0:2:12.230,221.348,28.1858,0,0.000885,0,0
0:2:12.729,221.993,28.2616,0,0.000885,0,0
0:2:13.235,221.642,28.2202,0,0.000885,0,0
0:2:13.735,221.699,28.2271,0,0.000885,0,0
0:2:14.226,221.815,28.2409,0,0.000885,0,0
0:2:14.728,222.46,28.3237,0,0.000885,0,0
0:2:15.223,223.634,28.4753,0,0.000885,0,0
0:2:15.725,223.634,28.4753,0,0.000885,0,0
0:2:16.226,223.225,28.4202,0,0.000885,0,0
0:2:16.727,221.464,28.1996,0,0.000885,0,0
0:2:17.227,218.354,27.7997,0,0.000885,0,0
0:2:17.722,215.307,27.4136,0,0.000885,0,0
0:2:18.224,209.146,26.6276,0,0.000885,0,0
0:2:18.727,199.472,25.4003,0,0.000885,0,0
0:2:19.222,180.175,22.9389,0,0.000885,0,0
0:2:19.728,160.407,20.4223,0,0.000885,0,0
0:2:19.916,156.773,19.9603,0,0.000885,0,0