File: DataFile2021-06-07_081649.csv
Test ID:,Date Tested:,Time:,Test Type:,Diameter Avg. (mm):,Cyl. Corr. Factor:,Height (mm):,Age (days):,Weight (kN):,Break Type:,Ramp Rate (MPa/s):,Load at Break (kN):,Stress at Break (MPa):
12,6/7/2021,08:16,Cylinder,100,1,200,0,3.6,3,0.25,503.4,64.09
Sample Time,Load (kN),Stress (MPa),Long. Strain,Trans. Strain,Chan1 Deflection (mm),Chan2 Deflection (mm)
0:0:18.876,8.3849,1.06869,0,0.000885,0,0
0:0:20.000,13.1979,1.68232,0,0.000885,0,0
0:0:21.098,12.0235,1.53064,0,0.000885,0,0
0:0:22.197,11.9079,1.51685,0,0.000885,0,0
0:0:23.295,13.2557,1.68922,0,0.000885,0,0
0:0:24.400,15.1907,1.93743,0,0.000885,0,0
0:0:25.512,18.1799,2.31664,0,0.000885,0,0
0:0:26.606,20.702,2.6338,0,0.000885,0,0
0:0:27.701,22.8149,2.90269,0,0.000885,0,0
0:0:28.795,24.3407,3.09575,0,0.000885,0,0
0:0:29.912,26.8628,3.4198,0,0.000885,0,0
0:0:31.015,29.3271,3.73696,0,0.000885,0,0
0:0:32.110,31.0263,3.9507,0,0.000885,0,0
0:0:33.204,33.2549,4.23338,0,0.000885,0,0
0:0:34.300,35.3055,4.49538,0,0.000885,0,0
0:0:35.414,38.0634,4.84701,0,0.000885,0,0
0:0:36.515,39.8828,5.07454,0,0.000885,0,0
0:0:37.610,41.6398,5.30207,0,0.000885,0,0
0:0:38.704,44.3399,5.64681,0,0.000885,0,0
0:0:39.807,46.3905,5.90881,0,0.000885,0,0
0:0:40.919,48.2677,6.14323,0,0.000885,0,0
0:0:42.014,50.6163,6.4466,0,0.000885,0,0
0:0:43.110,52.7248,6.71549,0,0.000885,0,0
0:0:44.205,54.6642,6.95681,0,0.000885,0,0
0:0:45.318,57.3598,7.30155,0,0.000885,0,0
0:0:46.417,59.2948,7.54976,0,0.000885,0,0
0:0:47.510,61.9949,7.8945,0,0.000885,0,0
0:0:48.607,63.8097,8.12202,0,0.000885,0,0
0:0:49.710,65.2198,8.30129,0,0.000885,0,0
0:0:50.821,67.7998,8.63224,0,0.000885,0,0
0:0:51.916,70.2641,8.94939,0,0.000885,0,0
0:0:53.009,71.8477,9.14934,0,0.000885,0,0
0:0:54.102,74.2497,9.45271,0,0.000885,0,0
0:0:55.214,76.4783,9.7354,0,0.000885,0,0
0:0:56.318,79.0004,10.0595,0,0.000885,0,0
0:0:57.414,80.9977,10.3146,0,0.000885,0,0
0:0:58.510,83.0483,10.5766,0,0.000885,0,0
0:0:59.615,85.6283,10.9006,0,0.000885,0,0
0:1:0.722,86.9805,11.073,0,0.000885,0,0
0:1:1.816,89.3247,11.3763,0,0.000885,0,0
0:1:2.909,91.7312,11.6797,0,0.000885,0,0
0:1:4.002,93.8397,11.9486,0,0.000885,0,0
0:1:5.116,96.304,12.2589,0,0.000885,0,0
0:1:6.219,98.239,12.5071,0,0.000885,0,0
0:1:7.316,100.645,12.8174,0,0.000885,0,0
0:1:8.410,102.523,13.0518,0,0.000885,0,0
0:1:9.506,104.573,13.3138,0,0.000885,0,0
0:1:10.617,106.686,13.5827,0,0.000885,0,0
0:1:11.715,109.208,13.9067,0,0.000885,0,0
0:1:12.811,111.028,14.1343,0,0.000885,0,0
0:1:13.907,113.256,14.4169,0,0.000885,0,0
0:1:15.012,115.836,14.7479,0,0.000885,0,0
0:1:16.120,117.593,14.9754,0,0.000885,0,0
0:1:17.211,118.883,15.134,0,0.000885,0,0
0:1:18.308,121.819,15.5132,0,0.000885,0,0
0:1:19.403,124.279,15.8235,0,0.000885,0,0
0:1:20.517,125.925,16.0303,0,0.000885,0,0
0:1:21.620,128.385,16.3475,0,0.000885,0,0
0:1:22.714,130.382,16.6026,0,0.000885,0,0
0:1:23.806,132.784,16.9059,0,0.000885,0,0
0:1:24.918,134.955,17.1817,0,0.000885,0,0
0:1:26.021,137.068,17.4506,0,0.000885,0,0
0:1:27.116,139.59,17.7747,0,0.000885,0,0
0:1:28.209,140.937,17.9471,0,0.000885,0,0
0:1:29.307,142.695,18.1677,0,0.000885,0,0
0:1:30.420,145.924,18.5814,0,0.000885,0,0
0:1:31.515,147.859,18.8227,0,0.000885,0,0
0:1:32.611,150.145,19.1192,0,0.000885,0,0
0:1:33.707,152.022,19.3536,0,0.000885,0,0
0:1:34.814,154.487,19.6707,0,0.000885,0,0
0:1:35.918,156.657,19.9465,0,0.000885,0,0
0:1:37.010,158.708,20.2085,0,0.000885,0,0
0:1:38.107,160.937,20.4912,0,0.000885,0,0
0:1:39.201,162.636,20.705,0,0.000885,0,0
0:1:40.316,165.158,21.029,0,0.000885,0,0
0:1:41.416,167.271,21.2979,0,0.000885,0,0
0:1:42.509,168.97,21.5116,0,0.000885,0,0
0:1:43.600,171.555,21.8426,0,0.000885,0,0
0:1:44.713,173.783,22.1253,0,0.000885,0,0
0:1:45.824,175.718,22.3735,0,0.000885,0,0
0:1:46.919,177.769,22.6355,0,0.000885,0,0
0:1:48.013,179.997,22.9182,0,0.000885,0,0
0:1:49.108,182.755,23.2698,0,0.000885,0,0
0:1:50.219,184.339,23.4698,0,0.000885,0,0
0:1:51.314,186.861,23.7938,0,0.000885,0,0
0:1:52.408,188.444,23.9938,0,0.000885,0,0
0:1:53.498,191.202,24.3454,0,0.000885,0,0
0:1:54.613,193.311,24.6143,0,0.000885,0,0
0:1:55.715,195.13,24.8418,0,0.000885,0,0
0:1:56.801,197.652,25.1659,0,0.000885,0,0
0:1:57.906,199.823,25.4417,0,0.000885,0,0
0:1:59.009,202.167,25.7381,0,0.000885,0,0
0:2:0.111,203.809,25.9519,0,0.000885,0,0
0:2:1.205,206.099,26.2414,0,0.000885,0,0
0:2:2.311,208.559,26.5517,0,0.000885,0,0
0:2:3.396,210.143,26.7586,0,0.000885,0,0
0:2:4.506,212.198,27.0206,0,0.000885,0,0
0:2:5.611,215.072,27.386,0,0.000885,0,0
0:2:6.709,216.713,27.5928,0,0.000885,0,0
0:2:7.803,218.884,27.8686,0,0.000885,0,0
0:2:8.889,221.348,28.1858,0,0.000885,0,0
0:2:9.992,223.634,28.4753,0,0.000885,0,0
0:2:11.109,225.627,28.7305,0,0.000885,0,0
0:2:12.205,227.389,28.9511,0,0.000885,0,0
0:2:13.311,229.969,29.282,0,0.000885,0,0
0:2:14.407,232.082,29.5509,0,0.000885,0,0
0:2:15.511,234.19,29.8198,0,0.000885,0,0
0:2:16.609,235.6,29.9991,0,0.000885,0,0
0:2:17.705,238.064,30.3094,0,0.000885,0,0
0:2:18.801,240.702,30.6472,0,0.000885,0,0
0:2:19.909,242.521,30.8816,0,0.000885,0,0
0:2:21.012,245.217,31.2195,0,0.000885,0,0
0:2:22.105,247.094,31.4608,0,0.000885,0,0
0:2:23.211,249.501,31.7641,0,0.000885,0,0
0:2:24.303,251.084,31.971,0,0.000885,0,0
0:2:25.408,253.606,32.2881,0,0.000885,0,0
0:2:26.506,256.129,32.6122,0,0.000885,0,0
0:2:27.613,258.179,32.8742,0,0.000885,0,0
0:2:28.711,259.878,33.0879,0,0.000885,0,0
0:2:29.816,262.401,33.412,0,0.000885,0,0
0:2:30.912,264.629,33.6947,0,0.000885,0,0
0:2:32.007,266.448,33.9222,0,0.000885,0,0
0:2:33.113,268.735,34.2187,0,0.000885,0,0
0:2:34.211,271.257,34.5358,0,0.000885,0,0
0:2:35.315,272.609,34.7082,0,0.000885,0,0
0:2:36.410,275.305,35.0529,0,0.000885,0,0
0:2:37.502,277.533,35.3356,0,0.000885,0,0
0:2:38.609,279.526,35.5907,0,0.000885,0,0
0:2:39.710,281.346,35.8252,0,0.000885,0,0
0:2:40.813,283.281,36.0665,0,0.000885,0,0
0:2:41.911,286.274,36.4526,0,0.000885,0,0
0:2:43.007,288.089,36.6801,0,0.000885,0,0
0:2:44.114,290.731,37.018,0,0.000885,0,0
0:2:45.218,292.315,37.2179,0,0.000885,0,0
0:2:46.310,294.601,37.5075,0,0.000885,0,0
0:2:47.415,296.945,37.8108,0,0.000885,0,0
0:2:48.510,299.294,38.1073,0,0.000885,0,0
0:2:49.613,301.051,38.328,0,0.000885,0,0
0:2:50.716,303.222,38.6106,0,0.000885,0,0
0:2:51.812,305.041,38.8382,0,0.000885,0,0
0:2:52.908,307.506,39.1553,0,0.000885,0,0
0:2:54.013,310.028,39.4725,0,0.000885,0,0
0:2:55.117,311.963,39.7207,0,0.000885,0,0
0:2:56.213,314.013,39.9827,0,0.000885,0,0
0:2:57.312,316.42,40.2861,0,0.000885,0,0
0:2:58.408,318.177,40.5136,0,0.000885,0,0
0:2:59.501,320.054,40.748,0,0.000885,0,0
0:3:0.608,322.928,41.1134,0,0.000885,0,0
0:3:1.717,325.45,41.4375,0,0.000885,0,0
0:3:2.813,327.153,41.6512,0,0.000885,0,0
0:3:3.898,329.204,41.9132,0,0.000885,0,0
0:3:5.004,331.61,42.2235,0,0.000885,0,0
0:3:6.104,333.781,42.4993,0,0.000885,0,0
0:3:7.210,335.48,42.713,0,0.000885,0,0
0:3:8.304,337.945,43.0302,0,0.000885,0,0
0:3:9.416,339.822,43.2646,0,0.000885,0,0
0:3:10.515,342.46,43.6024,0,0.000885,0,0
0:3:11.613,344.515,43.8644,0,0.000885,0,0
0:3:12.715,346.33,44.0989,0,0.000885,0,0
0:3:13.810,348.091,44.3195,0,0.000885,0,0
0:3:14.914,350.32,44.6022,0,0.000885,0,0
0:3:16.018,352.784,44.9193,0,0.000885,0,0
0:3:17.115,355.364,45.2434,0,0.000885,0,0
0:3:18.211,356.827,45.4296,0,0.000885,0,0
0:3:19.317,358.825,45.6847,0,0.000885,0,0
0:3:20.422,361.462,46.0225,0,0.000885,0,0
0:3:21.511,363.811,46.319,0,0.000885,0,0
0:3:22.616,365.92,46.5879,0,0.000885,0,0
0:3:23.699,368.033,46.8568,0,0.000885,0,0
0:3:24.804,370.083,47.1188,0,0.000885,0,0
0:3:25.910,372.725,47.4566,0,0.000885,0,0
0:3:27.016,374.54,47.691,0,0.000885,0,0
0:3:28.111,376.417,47.9255,0,0.000885,0,0
0:3:29.215,378.588,48.2012,0,0.000885,0,0
0:3:30.317,380.465,48.4426,0,0.000885,0,0
0:3:31.408,382.694,48.7252,0,0.000885,0,0
0:3:32.517,385.394,49.07,0,0.000885,0,0
0:3:33.614,386.977,49.2699,0,0.000885,0,0
0:3:34.721,389.322,49.5733,0,0.000885,0,0
0:3:35.820,391.377,49.8284,0,0.000885,0,0
0:3:36.915,393.605,50.118,0,0.000885,0,0
0:3:38.008,395.362,50.3386,0,0.000885,0,0
0:3:39.116,397.475,50.6075,0,0.000885,0,0
0:3:40.221,399.526,50.8695,0,0.000885,0,0
0:3:41.314,400.758,51.0281,0,0.000885,0,0
0:3:42.421,403.107,51.3246,0,0.000885,0,0
0:3:43.515,405.157,51.5866,0,0.000885,0,0
0:3:44.617,407.857,51.9313,0,0.000885,0,0
0:3:45.721,410.259,52.2347,0,0.000885,0,0
0:3:46.819,413.017,52.5863,0,0.000885,0,0
0:3:47.916,415.655,52.9242,0,0.000885,0,0
0:3:49.017,418.355,53.2689,0,0.000885,0,0
0:3:50.122,421.109,53.6205,0,0.000885,0,0
0:3:51.213,423.924,53.9791,0,0.000885,0,0
0:3:52.307,425.392,54.1652,0,0.000885,0,0
0:3:53.413,427.443,54.4272,0,0.000885,0,0
0:3:54.519,429.556,54.6961,0,0.000885,0,0
0:3:55.623,431.669,54.965,0,0.000885,0,0
0:3:56.719,432.781,55.1029,0,0.000885,0,0
0:3:57.816,435.187,55.4063,0,0.000885,0,0
0:3:58.900,437.007,55.6407,0,0.000885,0,0
0:4:0.022,439.702,55.9854,0,0.000885,0,0
0:4:1.117,441.931,56.2681,0,0.000885,0,0
0:4:2.223,443.808,56.5094,0,0.000885,0,0
0:4:3.308,445.569,56.7301,0,0.000885,0,0
0:4:4.416,447.678,56.999,0,0.000885,0,0
0:4:5.522,449.906,57.2816,0,0.000885,0,0
0:4:6.615,452.255,57.585,0,0.000885,0,0
0:4:7.708,454.306,57.847,0,0.000885,0,0
0:4:8.815,456.303,58.0952,0,0.000885,0,0
0:4:9.918,458.411,58.3641,0,0.000885,0,0
0:4:11.022,460.231,58.5985,0,0.000885,0,0
0:4:12.118,462.344,58.8674,0,0.000885,0,0
0:4:13.212,464.866,59.1915,0,0.000885,0,0
0:4:14.308,466.681,59.419,0,0.000885,0,0
0:4:15.413,469.323,59.7569,0,0.000885,0,0
0:4:16.522,471.961,60.0947,0,0.000885,0,0
0:4:17.621,474.305,60.3912,0,0.000885,0,0
0:4:18.718,475.773,60.5773,0,0.000885,0,0
0:4:19.825,477.824,60.8393,0,0.000885,0,0
0:4:20.923,479.234,61.0186,0,0.000885,0,0
0:4:22.020,482.107,61.384,0,0.000885,0,0
0:4:23.116,485.039,61.7563,0,0.000885,0,0
0:4:24.220,484.687,61.715,0,0.000885,0,0
0:4:25.324,482.988,61.4943,0,0.000885,0,0
0:4:26.425,488.09,62.1424,0,0.000885,0,0
0:4:27.512,492.899,62.7561,0,0.000885,0,0
0:4:28.608,495.243,63.0595,0,0.000885,0,0
0:4:29.718,498.352,63.4525,0,0.000885,0,0
0:4:30.817,503.396,64.0937,0,0.000885,0,0
0:4:31.919,501.813,63.8937,0,0.000885,0,0
0:4:33.023,494.598,62.9767,0,0.000885,0,0
0:4:34.107,498.703,63.4938,0,0.000885,0,0
0:4:35.208,480.23,61.1427,0,0.000885,0,0
0:4:36.310,473.309,60.2671,0,0.000885,0,0
0:4:37.414,455.129,57.9504,0,0.000885,0,0
0:4:38.518,364.336,46.3879,0,0.000885,0,0
0:4:39.614,365.51,46.5396,0,0.000885,0,0