File: DataFile2021-06-29_052514.csv
Test ID:,Date Tested:,Time:,Test Type:,Diameter Avg. (mm):,Cyl. Corr. Factor:,Height (mm):,Age (days):,Weight (kN):,Break Type:,Ramp Rate (MPa/s):,Load at Break (kN):,Stress at Break (MPa):
12,6/29/2021,05:25,Cylinder,100,1,200,0,3.6,3,0.23,260.47,33.16
Sample Time,Load (kN),Stress (MPa),Long. Strain,Trans. Strain,Chan1 Deflection (mm),Chan2 Deflection (mm)
0:0:18.742,6.04068,0.772213,0,0.000885,0,0
0:0:19.337,13.0778,1.66853,0,0.000885,0,0
0:0:19.930,11.1428,1.42032,0,0.000885,0,0
0:0:20.524,10.6757,1.35827,0,0.000885,0,0
0:0:21.117,10.3243,1.3169,0,0.000885,0,0
0:0:21.713,10.4978,1.33758,0,0.000885,0,0
0:0:22.308,10.8492,1.37895,0,0.000885,0,0
0:0:22.903,12.0235,1.53064,0,0.000885,0,0
0:0:23.498,13.7228,1.74437,0,0.000885,0,0
0:0:24.101,15.5421,1.9788,0,0.000885,0,0
0:0:24.708,16.2449,2.06843,0,0.000885,0,0
0:0:25.314,18.3,2.33043,0,0.000885,0,0
0:0:25.913,19.2386,2.44764,0,0.000885,0,0
0:0:26.509,20.3506,2.59243,0,0.000885,0,0
0:0:27.104,21.9342,2.79238,0,0.000885,0,0
0:0:27.700,22.6993,2.8889,0,0.000885,0,0
0:0:28.297,24.9278,3.17159,0,0.000885,0,0
0:0:28.897,25.6307,3.26122,0,0.000885,0,0
0:0:29.503,26.9206,3.42669,0,0.000885,0,0
0:0:30.108,27.9749,3.56459,0,0.000885,0,0
0:0:30.710,28.9134,3.6818,0,0.000885,0,0
0:0:31.307,30.2657,3.85417,0,0.000885,0,0
0:0:31.903,31.142,3.96449,0,0.000885,0,0
0:0:32.502,32.3163,4.11617,0,0.000885,0,0
0:0:33.100,33.3706,4.24717,0,0.000885,0,0
0:0:33.697,34.9541,4.45401,0,0.000885,0,0
0:0:34.294,35.8927,4.57122,0,0.000885,0,0
0:0:34.902,36.9514,4.70222,0,0.000885,0,0
0:0:35.508,38.2992,4.87459,0,0.000885,0,0
0:0:36.107,39.2956,5.00559,0,0.000885,0,0
0:0:36.707,40.8213,5.19865,0,0.000885,0,0
0:0:37.304,41.8177,5.32275,0,0.000885,0,0
0:0:37.899,42.8141,5.45375,0,0.000885,0,0
0:0:38.495,43.6949,5.56407,0,0.000885,0,0
0:0:39.090,44.8692,5.71575,0,0.000885,0,0
0:0:39.697,46.3327,5.90191,0,0.000885,0,0
0:0:40.303,47.6227,6.06049,0,0.000885,0,0
0:0:40.907,48.9749,6.23286,0,0.000885,0,0
0:0:41.502,49.7934,6.34318,0,0.000885,0,0
0:0:42.097,50.6741,6.45349,0,0.000885,0,0
0:0:42.695,52.4935,6.68102,0,0.000885,0,0
0:0:43.293,53.432,6.80513,0,0.000885,0,0
0:0:43.892,54.7798,6.97749,0,0.000885,0,0
0:0:44.500,55.6606,7.08781,0,0.000885,0,0
0:0:45.105,56.9506,7.25328,0,0.000885,0,0
0:0:45.704,58.1827,7.40497,0,0.000885,0,0
0:0:46.302,59.6462,7.59113,0,0.000885,0,0
0:0:46.901,60.8205,7.74281,0,0.000885,0,0
0:0:47.498,61.5234,7.83244,0,0.000885,0,0
0:0:48.096,62.9913,8.0186,0,0.000885,0,0
0:0:48.689,64.1656,8.17029,0,0.000885,0,0
0:0:49.292,65.3355,8.32197,0,0.000885,0,0
0:0:49.900,66.452,8.45987,0,0.000885,0,0
0:0:50.504,67.742,8.62534,0,0.000885,0,0
0:0:51.103,68.3291,8.70118,0,0.000885,0,0
0:0:51.702,69.7926,8.88734,0,0.000885,0,0
0:0:52.298,71.1449,9.05971,0,0.000885,0,0
0:0:52.893,72.1413,9.18382,0,0.000885,0,0
0:0:53.490,73.3111,9.3355,0,0.000885,0,0
0:0:54.087,74.4276,9.4734,0,0.000885,0,0
0:0:54.695,75.9534,9.67334,0,0.000885,0,0
0:0:55.301,77.3012,9.84571,0,0.000885,0,0
0:0:55.903,78.1819,9.95603,0,0.000885,0,0
0:0:56.499,79.294,10.0939,0,0.000885,0,0
0:0:57.096,80.5262,10.2525,0,0.000885,0,0
0:0:57.695,82.2298,10.4662,0,0.000885,0,0
0:0:58.293,82.4033,10.4938,0,0.000885,0,0
0:0:58.892,84.0447,10.7007,0,0.000885,0,0
0:0:59.501,84.9833,10.8179,0,0.000885,0,0
0:1:0.106,86.6869,11.0385,0,0.000885,0,0
0:1:0.703,87.9769,11.204,0,0.000885,0,0
0:1:1.301,88.8577,11.3143,0,0.000885,0,0
0:1:1.900,90.6725,11.5418,0,0.000885,0,0
0:1:2.497,91.1441,11.6039,0,0.000885,0,0
0:1:3.093,92.3139,11.7556,0,0.000885,0,0
0:1:3.688,94.0176,11.9693,0,0.000885,0,0
0:1:4.292,94.8361,12.0727,0,0.000885,0,0
0:1:4.899,95.4232,12.1486,0,0.000885,0,0
0:1:5.504,97.1269,12.3692,0,0.000885,0,0
0:1:6.102,98.6482,12.5622,0,0.000885,0,0
0:1:6.698,99.4133,12.6588,0,0.000885,0,0
0:1:7.294,100.174,12.7553,0,0.000885,0,0
0:1:7.888,101.526,12.9277,0,0.000885,0,0
0:1:8.487,103.283,13.1483,0,0.000885,0,0
0:1:9.085,104.515,13.3069,0,0.000885,0,0
0:1:9.692,105.045,13.3758,0,0.000885,0,0
0:1:10.297,106.335,13.5413,0,0.000885,0,0
0:1:10.898,107.095,13.6378,0,0.000885,0,0
0:1:11.493,108.563,13.824,0,0.000885,0,0
0:1:12.090,109.795,13.9826,0,0.000885,0,0
0:1:12.691,111.904,14.2515,0,0.000885,0,0
0:1:13.288,112.082,14.2721,0,0.000885,0,0
0:1:13.886,113.608,14.4652,0,0.000885,0,0
0:1:14.485,114.484,14.5755,0,0.000885,0,0
0:1:15.092,116.423,14.8237,0,0.000885,0,0
0:1:15.696,117.184,14.9203,0,0.000885,0,0
0:1:16.295,118.416,15.0788,0,0.000885,0,0
0:1:16.893,119.822,15.2581,0,0.000885,0,0
0:1:17.487,120.467,15.3408,0,0.000885,0,0
0:1:18.083,121.641,15.4856,0,0.000885,0,0
0:1:18.680,123.109,15.6718,0,0.000885,0,0
0:1:19.287,124.457,15.8442,0,0.000885,0,0
0:1:19.893,125.28,15.9476,0,0.000885,0,0
0:1:20.499,126.921,16.1613,0,0.000885,0,0
0:1:21.094,127.566,16.244,0,0.000885,0,0
0:1:21.688,128.211,16.3268,0,0.000885,0,0
0:1:22.284,130.088,16.5612,0,0.000885,0,0
0:1:22.879,130.613,16.6302,0,0.000885,0,0
0:1:23.478,132.432,16.8646,0,0.000885,0,0
0:1:24.075,133.255,16.968,0,0.000885,0,0
0:1:24.683,134.839,17.1679,0,0.000885,0,0
0:1:25.288,135.484,17.2507,0,0.000885,0,0
0:1:25.888,137.125,17.4575,0,0.000885,0,0
0:1:26.486,138.415,17.623,0,0.000885,0,0
0:1:27.084,139.47,17.7609,0,0.000885,0,0
0:1:27.681,140.76,17.9195,0,0.000885,0,0
0:1:28.277,142.05,18.0849,0,0.000885,0,0
0:1:28.872,142.872,18.1884,0,0.000885,0,0
0:1:29.474,143.869,18.3194,0,0.000885,0,0
0:1:30.082,145.159,18.4848,0,0.000885,0,0
0:1:30.687,146.627,18.671,0,0.000885,0,0
0:1:31.285,147.507,18.7813,0,0.000885,0,0
0:1:31.881,148.446,18.8985,0,0.000885,0,0
0:1:32.476,150.03,19.1054,0,0.000885,0,0
0:1:33.071,151.026,19.2295,0,0.000885,0,0
0:1:33.670,152.196,19.3812,0,0.000885,0,0
0:1:34.277,153.197,19.5053,0,0.000885,0,0
0:1:34.882,154.66,19.6914,0,0.000885,0,0
0:1:35.484,155.305,19.7742,0,0.000885,0,0
0:1:36.080,156.657,19.9465,0,0.000885,0,0
0:1:36.674,157.947,20.112,0,0.000885,0,0
0:1:37.271,159.469,20.3051,0,0.000885,0,0
0:1:37.868,160.643,20.4567,0,0.000885,0,0
0:1:38.465,161.639,20.5809,0,0.000885,0,0
0:1:39.062,163.223,20.7808,0,0.000885,0,0
0:1:39.670,163.752,20.8497,0,0.000885,0,0
0:1:40.275,165.572,21.0842,0,0.000885,0,0
0:1:40.873,166.51,21.2014,0,0.000885,0,0
0:1:41.471,167.8,21.3669,0,0.000885,0,0
0:1:42.068,168.97,21.5116,0,0.000885,0,0
0:1:42.663,169.615,21.5944,0,0.000885,0,0
0:1:43.259,171.025,21.7736,0,0.000885,0,0
0:1:43.862,172.609,21.9805,0,0.000885,0,0
0:1:44.468,173.721,22.1184,0,0.000885,0,0
0:1:45.075,174.486,22.2149,0,0.000885,0,0
0:1:45.680,175.776,22.3804,0,0.000885,0,0
0:1:46.278,177.244,22.5665,0,0.000885,0,0
0:1:46.873,178.12,22.6769,0,0.000885,0,0
0:1:47.467,179.704,22.8837,0,0.000885,0,0
0:1:48.063,181.172,23.0699,0,0.000885,0,0
0:1:48.661,182.168,23.194,0,0.000885,0,0
0:1:49.268,183.4,23.3525,0,0.000885,0,0
0:1:49.873,184.161,23.4491,0,0.000885,0,0
0:1:50.472,185.099,23.5663,0,0.000885,0,0
0:1:51.068,186.274,23.718,0,0.000885,0,0
0:1:51.663,188.035,23.9386,0,0.000885,0,0
0:1:52.261,188.912,24.0558,0,0.000885,0,0
0:1:52.857,189.912,24.1799,0,0.000885,0,0
0:1:53.463,190.846,24.2971,0,0.000885,0,0
0:1:54.059,192.608,24.5247,0,0.000885,0,0
0:1:54.663,193.782,24.6763,0,0.000885,0,0
0:1:55.263,195.366,24.8763,0,0.000885,0,0
0:1:55.855,195.891,24.9452,0,0.000885,0,0
0:1:56.460,197.123,25.0969,0,0.000885,0,0
0:1:57.061,198.297,25.2486,0,0.000885,0,0
0:1:57.649,199.472,25.4003,0,0.000885,0,0
0:1:58.241,201.171,25.614,0,0.000885,0,0
0:1:58.841,201.171,25.614,0,0.000885,0,0
0:1:59.442,202.697,25.8071,0,0.000885,0,0
0:2:0.044,204.516,26.0415,0,0.000885,0,0
0:2:0.645,205.334,26.1449,0,0.000885,0,0
0:2:1.257,206.331,26.269,0,0.000885,0,0
0:2:1.858,207.505,26.4207,0,0.000885,0,0
0:2:2.460,208.679,26.5724,0,0.000885,0,0
0:2:3.052,210.027,26.7448,0,0.000885,0,0
0:2:3.660,211.611,26.9447,0,0.000885,0,0
0:2:4.263,212.959,27.1171,0,0.000885,0,0
0:2:4.867,213.604,27.1998,0,0.000885,0,0
0:2:5.469,214.311,27.2894,0,0.000885,0,0
0:2:6.062,215.659,27.4618,0,0.000885,0,0
0:2:6.653,217.358,27.6756,0,0.000885,0,0
0:2:7.259,217.594,27.7031,0,0.000885,0,0
0:2:7.861,219.235,27.9169,0,0.000885,0,0
0:2:8.460,220.289,28.0479,0,0.000885,0,0
0:2:9.050,221.757,28.234,0,0.000885,0,0
0:2:9.658,222.696,28.3512,0,0.000885,0,0
0:2:10.260,223.341,28.434,0,0.000885,0,0
0:2:10.862,225.627,28.7305,0,0.000885,0,0
0:2:11.462,226.744,28.8683,0,0.000885,0,0
0:2:12.052,227.976,29.0269,0,0.000885,0,0
0:2:12.667,228.736,29.1235,0,0.000885,0,0
0:2:13.259,230.262,29.3165,0,0.000885,0,0
0:2:13.862,231.143,29.4268,0,0.000885,0,0
0:2:14.465,231.788,29.5096,0,0.000885,0,0
0:2:15.065,233.314,29.7095,0,0.000885,0,0
0:2:15.661,234.426,29.8474,0,0.000885,0,0
0:2:16.263,236.009,30.0474,0,0.000885,0,0
0:2:16.868,236.712,30.137,0,0.000885,0,0
0:2:17.460,237.709,30.268,0,0.000885,0,0
0:2:18.063,239.234,30.461,0,0.000885,0,0
0:2:18.665,240.587,30.6334,0,0.000885,0,0
0:2:19.265,241.289,30.723,0,0.000885,0,0
0:2:19.869,242.401,30.8609,0,0.000885,0,0
0:2:20.471,243.398,30.9919,0,0.000885,0,0
0:2:21.065,244.688,31.1574,0,0.000885,0,0
0:2:21.655,246.271,31.3574,0,0.000885,0,0
0:2:22.265,247.272,31.4815,0,0.000885,0,0
0:2:22.859,248.091,31.5849,0,0.000885,0,0
0:2:23.463,249.559,31.7779,0,0.000885,0,0
0:2:24.055,250.261,31.8676,0,0.000885,0,0
0:2:24.664,251.378,32.0055,0,0.000885,0,0
0:2:25.264,252.726,32.1778,0,0.000885,0,0
0:2:25.868,253.958,32.3364,0,0.000885,0,0
0:2:26.460,254.425,32.3916,0,0.000885,0,0
0:2:27.064,255.835,32.5708,0,0.000885,0,0
0:2:27.666,256.538,32.6605,0,0.000885,0,0
0:2:28.267,257.65,32.8053,0,0.000885,0,0
0:2:28.866,259.118,32.9914,0,0.000885,0,0
0:2:29.469,259.354,33.019,0,0.000885,0,0
0:2:30.071,259.821,33.081,0,0.000885,0,0
0:2:30.672,260.879,33.2189,0,0.000885,0,0
0:2:31.263,260.114,33.1155,0,0.000885,0,0
0:2:31.872,258.357,32.8949,0,0.000885,0,0
0:2:32.462,246.685,31.4056,0,0.000885,0,0
0:2:33.064,214.017,27.2481,0,0.000885,0,0
0:2:33.668,189.97,24.1868,0,0.000885,0,0
0:2:33.808,185.513,23.6214,0,0.000885,0,0