File: DataFile2021-06-29_070857.csv
Test ID:,Date Tested:,Time:,Test Type:,Diameter Avg. (mm):,Cyl. Corr. Factor:,Height (mm):,Age (days):,Weight (kN):,Break Type:,Ramp Rate (MPa/s):,Load at Break (kN):,Stress at Break (MPa):
12,6/29/2021,07:08,Cylinder,100,1,200,0,3.6,3,0.23,334.25,42.56
Sample Time,Load (kN),Stress (MPa),Long. Strain,Trans. Strain,Chan1 Deflection (mm),Chan2 Deflection (mm)
0:0:18.911,6.68568,0.848055,0,0.000885,0,0
0:0:19.701,16.3027,2.07532,0,0.000885,0,0
0:0:20.508,15.72,1.99948,0,0.000885,0,0
0:0:21.321,15.72,1.99948,0,0.000885,0,0
0:0:22.124,15.4264,1.96501,0,0.000885,0,0
0:0:22.929,15.1907,1.93743,0,0.000885,0,0
0:0:23.715,15.075,1.91674,0,0.000885,0,0
0:0:24.525,16.0714,2.04774,0,0.000885,0,0
0:0:25.333,17.1257,2.17874,0,0.000885,0,0
0:0:26.137,19.0028,2.42006,0,0.000885,0,0
0:0:26.932,20.8221,2.64759,0,0.000885,0,0
0:0:27.727,23.2864,2.96475,0,0.000885,0,0
0:0:28.527,24.4563,3.11643,0,0.000885,0,0
0:0:29.328,26.3913,3.35775,0,0.000885,0,0
0:0:30.140,27.5656,3.50943,0,0.000885,0,0
0:0:30.944,28.562,3.63354,0,0.000885,0,0
0:0:31.741,30.2034,3.84727,0,0.000885,0,0
0:0:32.541,32.3163,4.11617,0,0.000885,0,0
0:0:33.333,33.4328,4.25407,0,0.000885,0,0
0:0:34.134,35.6614,4.54365,0,0.000885,0,0
0:0:34.943,37.0092,4.70912,0,0.000885,0,0
0:0:35.748,38.4727,4.90217,0,0.000885,0,0
0:0:36.542,39.5892,5.04007,0,0.000885,0,0
0:0:37.338,41.7599,5.31586,0,0.000885,0,0
0:0:38.137,43.2856,5.50891,0,0.000885,0,0
0:0:38.929,44.2242,5.63302,0,0.000885,0,0
0:0:39.739,45.6299,5.81228,0,0.000885,0,0
0:0:40.546,47.5648,6.0536,0,0.000885,0,0
0:0:41.347,49.4998,6.30181,0,0.000885,0,0
0:0:42.139,50.9099,6.48107,0,0.000885,0,0
0:0:42.938,52.6669,6.7086,0,0.000885,0,0
0:0:43.730,54.2505,6.90855,0,0.000885,0,0
0:0:44.531,55.367,7.04644,0,0.000885,0,0
0:0:45.344,57.3598,7.30155,0,0.000885,0,0
0:0:46.145,58.592,7.46013,0,0.000885,0,0
0:0:46.943,60.2912,7.67386,0,0.000885,0,0
0:0:47.737,62.1105,7.90829,0,0.000885,0,0
0:0:48.536,63.1647,8.03929,0,0.000885,0,0
0:0:49.329,64.7483,8.24613,0,0.000885,0,0
0:0:50.140,67.2126,8.55639,0,0.000885,0,0
0:0:50.945,68.3291,8.70118,0,0.000885,0,0
0:0:51.742,69.7348,8.88045,0,0.000885,0,0
0:0:52.536,70.9091,9.02524,0,0.000885,0,0
0:0:53.329,73.2533,9.32861,0,0.000885,0,0
0:0:54.129,74.4276,9.4734,0,0.000885,0,0
0:0:54.938,76.0112,9.68024,0,0.000885,0,0
0:0:55.744,77.4168,9.8595,0,0.000885,0,0
0:0:56.536,78.8848,10.0457,0,0.000885,0,0
0:0:57.336,80.2904,10.2249,0,0.000885,0,0
0:0:58.129,81.874,10.4249,0,0.000885,0,0
0:0:58.926,83.6933,10.6593,0,0.000885,0,0
0:0:59.731,85.397,10.873,0,0.000885,0,0
0:1:0.539,87.5632,11.1488,0,0.000885,0,0
0:1:1.340,88.5641,11.2729,0,0.000885,0,0
0:1:2.130,90.4412,11.5142,0,0.000885,0,0
0:1:2.930,91.3754,11.6315,0,0.000885,0,0
0:1:3.731,92.9011,11.8314,0,0.000885,0,0
0:1:4.532,94.8984,12.0796,0,0.000885,0,0
0:1:5.342,96.1261,12.2382,0,0.000885,0,0
0:1:6.146,98.3591,12.5209,0,0.000885,0,0
0:1:6.941,99.1775,12.6243,0,0.000885,0,0
0:1:7.736,101.464,12.9208,0,0.000885,0,0
0:1:8.532,102.46,13.0449,0,0.000885,0,0
0:1:9.333,104.106,13.2517,0,0.000885,0,0
0:1:10.142,106.215,13.5206,0,0.000885,0,0
0:1:10.941,107.389,13.6723,0,0.000885,0,0
0:1:11.739,109.382,13.9274,0,0.000885,0,0
0:1:12.531,110.32,14.0446,0,0.000885,0,0
0:1:13.329,112.024,14.2653,0,0.000885,0,0
0:1:14.134,113.665,14.4721,0,0.000885,0,0
0:1:14.945,115.774,14.741,0,0.000885,0,0
0:1:15.751,116.481,14.8306,0,0.000885,0,0
0:1:16.544,118.532,15.0926,0,0.000885,0,0
0:1:17.342,119.355,15.196,0,0.000885,0,0
0:1:18.134,120.938,15.396,0,0.000885,0,0
0:1:18.933,123.927,15.7821,0,0.000885,0,0
0:1:19.735,123.87,15.7683,0,0.000885,0,0
0:1:20.543,125.983,16.0372,0,0.000885,0,0
0:1:21.344,128.327,16.3406,0,0.000885,0,0
0:1:22.139,129.617,16.506,0,0.000885,0,0
0:1:22.936,130.382,16.6026,0,0.000885,0,0
0:1:23.728,132.962,16.9266,0,0.000885,0,0
0:1:24.533,133.487,16.9956,0,0.000885,0,0
0:1:25.343,135.6,17.2645,0,0.000885,0,0
0:1:26.149,137.01,17.4437,0,0.000885,0,0
0:1:26.942,138.709,17.6575,0,0.000885,0,0
0:1:27.739,139.883,17.8092,0,0.000885,0,0
0:1:28.531,141.64,18.0367,0,0.000885,0,0
0:1:29.331,144.105,18.3469,0,0.000885,0,0
0:1:30.142,144.865,18.4435,0,0.000885,0,0
0:1:30.942,147.272,18.7537,0,0.000885,0,0
0:1:31.740,148.562,18.9123,0,0.000885,0,0
0:1:32.531,149.91,19.0847,0,0.000885,0,0
0:1:33.339,150.675,19.1812,0,0.000885,0,0
0:1:34.132,152.961,19.4777,0,0.000885,0,0
0:1:34.943,154.193,19.6294,0,0.000885,0,0
0:1:35.749,156.128,19.8776,0,0.000885,0,0
0:1:36.542,158.472,20.1741,0,0.000885,0,0
0:1:37.337,158.766,20.2154,0,0.000885,0,0
0:1:38.130,160.643,20.4567,0,0.000885,0,0
0:1:38.939,162.284,20.6636,0,0.000885,0,0
0:1:39.737,164.633,20.9601,0,0.000885,0,0
0:1:40.546,165.803,21.1117,0,0.000885,0,0
0:1:41.345,166.742,21.229,0,0.000885,0,0
0:1:42.140,169.264,21.553,0,0.000885,0,0
0:1:42.933,169.909,21.6357,0,0.000885,0,0
0:1:43.726,172.431,21.9529,0,0.000885,0,0
0:1:44.544,173.49,22.0908,0,0.000885,0,0
0:1:45.350,175.073,22.2908,0,0.000885,0,0
0:1:46.150,176.479,22.47,0,0.000885,0,0
0:1:46.940,177.595,22.6148,0,0.000885,0,0
0:1:47.739,179.588,22.863,0,0.000885,0,0
0:1:48.538,181.759,23.1388,0,0.000885,0,0
0:1:49.337,183.285,23.3388,0,0.000885,0,0
0:1:50.147,183.987,23.4284,0,0.000885,0,0
0:1:50.948,185.864,23.6628,0,0.000885,0,0
0:1:51.741,187.506,23.8765,0,0.000885,0,0
0:1:52.535,189.383,24.111,0,0.000885,0,0
0:1:53.327,190.264,24.2282,0,0.000885,0,0
0:1:54.132,192.492,24.5109,0,0.000885,0,0
0:1:54.939,193.489,24.635,0,0.000885,0,0
0:1:55.740,195.659,24.9108,0,0.000885,0,0
0:1:56.534,197.768,25.1797,0,0.000885,0,0
0:1:57.339,199.351,25.3796,0,0.000885,0,0
0:1:58.138,200.117,25.4761,0,0.000885,0,0
0:1:58.936,201.113,25.6071,0,0.000885,0,0
0:1:59.739,203.342,25.8898,0,0.000885,0,0
0:2:0.544,204.516,26.0415,0,0.000885,0,0
0:2:1.340,206.393,26.2759,0,0.000885,0,0
0:2:2.133,208.092,26.4966,0,0.000885,0,0
0:2:2.927,209.267,26.6413,0,0.000885,0,0
0:2:3.729,211.789,26.9654,0,0.000885,0,0
0:2:4.539,213.079,27.1309,0,0.000885,0,0
0:2:5.340,213.137,27.1378,0,0.000885,0,0
0:2:6.135,215.481,27.4342,0,0.000885,0,0
0:2:6.923,217.242,27.6618,0,0.000885,0,0
0:2:7.714,218.941,27.8755,0,0.000885,0,0
0:2:8.503,220.352,28.0548,0,0.000885,0,0
0:2:9.295,221.993,28.2616,0,0.000885,0,0
0:2:10.100,223.986,28.5167,0,0.000885,0,0
0:2:10.901,226.156,28.7925,0,0.000885,0,0
0:2:11.688,226.859,28.8821,0,0.000885,0,0
0:2:12.479,227.331,28.9442,0,0.000885,0,0
0:2:13.268,229.502,29.22,0,0.000885,0,0
0:2:14.059,230.907,29.3992,0,0.000885,0,0
0:2:14.859,233.078,29.675,0,0.000885,0,0
0:2:15.662,234.132,29.8129,0,0.000885,0,0
0:2:16.455,236.245,30.0818,0,0.000885,0,0
0:2:17.243,238.18,30.3231,0,0.000885,0,0
0:2:18.036,238.709,30.3921,0,0.000885,0,0
0:2:18.829,241.169,30.7092,0,0.000885,0,0
0:2:19.635,241.992,30.8127,0,0.000885,0,0
0:2:20.437,243.927,31.0609,0,0.000885,0,0
0:2:21.237,244.808,31.1712,0,0.000885,0,0
0:2:22.035,246.271,31.3574,0,0.000885,0,0
0:2:22.825,248.678,31.6607,0,0.000885,0,0
0:2:23.614,250.261,31.8676,0,0.000885,0,0
0:2:24.419,252.432,32.1434,0,0.000885,0,0
0:2:25.220,252.961,32.2054,0,0.000885,0,0
0:2:26.014,254.661,32.426,0,0.000885,0,0
0:2:26.819,255.893,32.5846,0,0.000885,0,0
0:2:27.613,257.419,32.7777,0,0.000885,0,0
0:2:28.407,258.94,32.9707,0,0.000885,0,0
0:2:29.194,260.466,33.1638,0,0.000885,0,0
0:2:29.999,262.401,33.412,0,0.000885,0,0
0:2:30.800,264.046,33.6188,0,0.000885,0,0
0:2:31.590,266.039,33.8739,0,0.000885,0,0
0:2:32.381,267.036,33.998,0,0.000885,0,0
0:2:33.172,268.971,34.2463,0,0.000885,0,0
0:2:33.964,270.145,34.3979,0,0.000885,0,0
0:2:34.771,272.022,34.6324,0,0.000885,0,0
0:2:35.572,273.486,34.8185,0,0.000885,0,0
0:2:36.358,274.776,34.984,0,0.000885,0,0
0:2:37.151,276.359,35.1839,0,0.000885,0,0
0:2:37.937,278.414,35.4459,0,0.000885,0,0
0:2:38.740,279.704,35.6114,0,0.000885,0,0
0:2:39.547,281.581,35.8527,0,0.000885,0,0
0:2:40.348,282.756,36.0044,0,0.000885,0,0
0:2:41.144,284.691,36.2457,0,0.000885,0,0
0:2:41.940,286.39,36.4664,0,0.000885,0,0
0:2:42.730,287.68,36.6318,0,0.000885,0,0
0:2:43.518,289.263,36.8318,0,0.000885,0,0
0:2:44.312,290.905,37.0386,0,0.000885,0,0
0:2:45.115,292.257,37.211,0,0.000885,0,0
0:2:45.916,294.25,37.4661,0,0.000885,0,0
0:2:46.746,295.833,37.6661,0,0.000885,0,0
0:2:47.544,297.008,37.8177,0,0.000885,0,0
0:2:48.337,298.471,38.0039,0,0.000885,0,0
0:2:49.143,299.588,38.1418,0,0.000885,0,0
0:2:49.945,301.696,38.4107,0,0.000885,0,0
0:2:50.740,302.991,38.5762,0,0.000885,0,0
0:2:51.543,305.099,38.8451,0,0.000885,0,0
0:2:52.341,306.447,39.0174,0,0.000885,0,0
0:2:53.140,307.563,39.1622,0,0.000885,0,0
0:2:53.943,309.614,39.4242,0,0.000885,0,0
0:2:54.747,311.198,39.6242,0,0.000885,0,0
0:2:55.549,312.665,39.8103,0,0.000885,0,0
0:2:56.339,314.307,40.0172,0,0.000885,0,0
0:2:57.141,315.89,40.2171,0,0.000885,0,0
0:2:57.939,317.301,40.3964,0,0.000885,0,0
0:2:58.739,318.533,40.555,0,0.000885,0,0
0:2:59.541,320.641,40.8239,0,0.000885,0,0
0:3:0.341,321.873,40.9824,0,0.000885,0,0
0:3:1.144,323.457,41.1824,0,0.000885,0,0
0:3:1.946,325.276,41.4168,0,0.000885,0,0
0:3:2.744,326.682,41.5961,0,0.000885,0,0
0:3:3.532,327.914,41.7547,0,0.000885,0,0
0:3:4.327,329.675,41.9753,0,0.000885,0,0
0:3:5.129,330.73,42.1132,0,0.000885,0,0
0:3:5.926,332.958,42.3959,0,0.000885,0,0
0:3:6.719,334.075,42.5338,0,0.000885,0,0
0:3:7.507,334.248,42.5613,0,0.000885,0,0
0:3:8.297,334.426,42.582,0,0.000885,0,0
0:3:9.087,333.603,42.4786,0,0.000885,0,0
0:3:9.890,330.788,42.1201,0,0.000885,0,0
0:3:10.690,316.887,40.3481,0,0.000885,0,0
0:3:11.478,288.97,36.7904,0,0.000885,0,0
0:3:12.269,246.627,31.3987,0,0.000885,0,0
0:3:12.394,246.627,31.3987,0,0.000885,0,0