File: DataFile2021-06-08_051408.csv
Test ID:,Date Tested:,Time:,Test Type:,Diameter Avg. (mm):,Cyl. Corr. Factor:,Height (mm):,Age (days):,Weight (kN):,Break Type:,Ramp Rate (MPa/s):,Load at Break (kN):,Stress at Break (MPa):
12,6/8/2021,05:14,Cylinder,150,1,300,0,3.6,6,0.24,772.52,43.71
Sample Time,Load (kN),Stress (MPa),Long. Strain,Trans. Strain,Chan1 Deflection (mm),Chan2 Deflection (mm)
0:0:13.689,5.10211,0.28958,0,0.000885,0,0
0:0:14.481,21.1735,1.19969,0,0.000885,0,0
0:0:15.279,20.235,1.14453,0,0.000885,0,0
0:0:16.069,19.9992,1.13074,0,0.000885,0,0
0:0:16.865,20.057,1.13763,0,0.000885,0,0
0:0:17.668,22.1699,1.25485,0,0.000885,0,0
0:0:18.464,25.6307,1.4479,0,0.000885,0,0
0:0:19.270,30.2034,1.7099,0,0.000885,0,0
0:0:20.079,34.7806,1.96501,0,0.000885,0,0
0:0:20.879,37.245,2.1098,0,0.000885,0,0
0:0:21.673,40.4121,2.28906,0,0.000885,0,0
0:0:22.473,44.9849,2.54417,0,0.000885,0,0
0:0:23.266,47.9741,2.71653,0,0.000885,0,0
0:0:24.066,51.2613,2.90269,0,0.000885,0,0
0:0:24.877,55.0156,3.11643,0,0.000885,0,0
0:0:25.682,58.7076,3.32327,0,0.000885,0,0
0:0:26.478,62.5198,3.53701,0,0.000885,0,0
0:0:27.272,65.4556,3.70248,0,0.000885,0,0
0:0:28.071,68.3291,3.86796,0,0.000885,0,0
0:0:28.866,72.6661,4.10928,0,0.000885,0,0
0:0:29.677,76.4783,4.32991,0,0.000885,0,0
0:0:30.484,79.6454,4.50917,0,0.000885,0,0
0:0:31.283,82.9326,4.69533,0,0.000885,0,0
0:0:32.078,86.9805,4.92286,0,0.000885,0,0
0:0:32.875,91.3175,5.16417,0,0.000885,0,0
0:0:33.673,93.4304,5.28828,0,0.000885,0,0
0:0:34.475,97.4205,5.51581,0,0.000885,0,0
0:0:35.286,101.935,5.77091,0,0.000885,0,0
0:0:36.087,104.515,5.9157,0,0.000885,0,0
0:0:36.889,107.856,6.10186,0,0.000885,0,0
0:0:37.680,111.379,6.30181,0,0.000885,0,0
0:0:38.480,114.72,6.49486,0,0.000885,0,0
0:0:39.285,118.883,6.72928,0,0.000885,0,0
0:0:40.093,121.699,6.88786,0,0.000885,0,0
0:0:40.895,125.217,7.08781,0,0.000885,0,0
0:0:41.689,129.15,7.30844,0,0.000885,0,0
0:0:42.487,132.49,7.4946,0,0.000885,0,0
0:0:43.280,136.187,7.70834,0,0.000885,0,0
0:0:44.080,139.883,7.91518,0,0.000885,0,0
0:0:44.892,143.927,8.14271,0,0.000885,0,0
0:0:45.700,147.214,8.32887,0,0.000885,0,0
0:0:46.494,150.497,8.51503,0,0.000885,0,0
0:0:47.291,153.197,8.66671,0,0.000885,0,0
0:0:48.087,156.947,8.88045,0,0.000885,0,0
0:0:48.884,161.524,9.14245,0,0.000885,0,0
0:0:49.696,163.93,9.27345,0,0.000885,0,0
0:0:50.503,167.68,9.48719,0,0.000885,0,0
0:0:51.302,171.319,9.69403,0,0.000885,0,0
0:0:52.097,175.482,9.92845,0,0.000885,0,0
0:0:52.893,179.059,10.1353,0,0.000885,0,0
0:0:53.691,182.226,10.3146,0,0.000885,0,0
0:0:54.491,185.744,10.5145,0,0.000885,0,0
0:0:55.303,189.499,10.7213,0,0.000885,0,0
0:0:56.105,193.137,10.9282,0,0.000885,0,0
0:0:56.898,196.478,11.1212,0,0.000885,0,0
0:0:57.687,199.529,11.2936,0,0.000885,0,0
0:0:58.476,203.693,11.528,0,0.000885,0,0
0:0:59.280,207.154,11.7211,0,0.000885,0,0
0:1:0.083,210.379,11.9072,0,0.000885,0,0
0:1:0.876,214.075,12.1141,0,0.000885,0,0
0:1:1.663,217.829,12.3278,0,0.000885,0,0
0:1:2.455,220.174,12.4588,0,0.000885,0,0
0:1:3.244,223.87,12.6657,0,0.000885,0,0
0:1:4.038,227.74,12.8863,0,0.000885,0,0
0:1:4.844,231.201,13.0862,0,0.000885,0,0
0:1:5.641,234.897,13.2931,0,0.000885,0,0
0:1:6.435,238.589,13.4999,0,0.000885,0,0
0:1:7.224,242.344,13.7137,0,0.000885,0,0
0:1:8.017,245.626,13.8998,0,0.000885,0,0
0:1:8.806,248.678,14.0722,0,0.000885,0,0
0:1:9.611,252.49,14.2859,0,0.000885,0,0
0:1:10.414,256.418,14.5135,0,0.000885,0,0
0:1:11.206,259.118,14.6651,0,0.000885,0,0
0:1:11.997,262.752,14.872,0,0.000885,0,0
0:1:12.786,266.506,15.0788,0,0.000885,0,0
0:1:13.579,270.145,15.2857,0,0.000885,0,0
0:1:14.372,273.721,15.4925,0,0.000885,0,0
0:1:15.176,276.831,15.6649,0,0.000885,0,0
0:1:15.972,281.581,15.9338,0,0.000885,0,0
0:1:16.776,283.516,16.0441,0,0.000885,0,0
0:1:17.563,286.741,16.2234,0,0.000885,0,0
0:1:18.356,291.025,16.4716,0,0.000885,0,0
0:1:19.153,295.131,16.6991,0,0.000885,0,0
0:1:19.956,298.529,16.8922,0,0.000885,0,0
0:1:20.750,302.226,17.1059,0,0.000885,0,0
0:1:21.542,305.744,17.2989,0,0.000885,0,0
0:1:22.332,307.799,17.4162,0,0.000885,0,0
0:1:23.122,312.021,17.6575,0,0.000885,0,0
0:1:23.914,315.833,17.8712,0,0.000885,0,0
0:1:24.718,319.351,18.0712,0,0.000885,0,0
0:1:25.519,322.928,18.2711,0,0.000885,0,0
0:1:26.306,326.388,18.4711,0,0.000885,0,0
0:1:27.100,329.849,18.6641,0,0.000885,0,0
0:1:27.887,332.665,18.8227,0,0.000885,0,0
0:1:28.681,336.655,19.0502,0,0.000885,0,0
0:1:29.479,340.289,19.2571,0,0.000885,0,0
0:1:30.283,343.514,19.4363,0,0.000885,0,0
0:1:31.078,346.565,19.6087,0,0.000885,0,0
0:1:31.865,350.435,19.8293,0,0.000885,0,0
0:1:32.668,354.661,20.0706,0,0.000885,0,0
0:1:33.464,357.65,20.2361,0,0.000885,0,0
0:1:34.271,361.64,20.4636,0,0.000885,0,0
0:1:35.071,365.039,20.6567,0,0.000885,0,0
0:1:35.863,368.562,20.8566,0,0.000885,0,0
0:1:36.662,371.845,21.0428,0,0.000885,0,0
0:1:37.462,375.127,21.229,0,0.000885,0,0
0:1:38.262,378.472,21.4151,0,0.000885,0,0
0:1:39.064,382.814,21.6633,0,0.000885,0,0
0:1:39.872,386.742,21.884,0,0.000885,0,0
0:1:40.677,390.145,22.077,0,0.000885,0,0
0:1:41.473,393.249,22.2563,0,0.000885,0,0
0:1:42.266,397.004,22.4631,0,0.000885,0,0
0:1:43.071,400.7,22.6769,0,0.000885,0,0
0:1:43.858,403.107,22.8079,0,0.000885,0,0
0:1:44.663,406.447,23.0009,0,0.000885,0,0
0:1:45.465,410.437,23.2284,0,0.000885,0,0
0:1:46.257,414.25,23.4422,0,0.000885,0,0
0:1:47.048,417.884,23.649,0,0.000885,0,0
0:1:47.865,421.696,23.8628,0,0.000885,0,0
0:1:48.661,425.099,24.0558,0,0.000885,0,0
0:1:49.466,428.088,24.2282,0,0.000885,0,0
0:1:50.266,431.611,24.4212,0,0.000885,0,0
0:1:51.053,435.832,24.6625,0,0.000885,0,0
0:1:51.847,438.822,24.8349,0,0.000885,0,0
0:1:52.634,442.282,25.028,0,0.000885,0,0
0:1:53.428,446.446,25.2624,0,0.000885,0,0
0:1:54.227,449.439,25.4348,0,0.000885,0,0
0:1:55.029,453.074,25.6416,0,0.000885,0,0
0:1:55.825,456.361,25.8278,0,0.000885,0,0
0:1:56.615,460.346,26.0484,0,0.000885,0,0
0:1:57.409,463.514,26.2277,0,0.000885,0,0
0:1:58.195,466.271,26.3862,0,0.000885,0,0
0:1:58.988,470.319,26.6138,0,0.000885,0,0
0:1:59.796,474.131,26.8275,0,0.000885,0,0
0:2:0.597,477.824,27.0412,0,0.000885,0,0
0:2:1.386,481.226,27.2343,0,0.000885,0,0
0:2:2.176,484.629,27.4273,0,0.000885,0,0
0:2:2.977,488.619,27.648,0,0.000885,0,0
0:2:3.772,492.605,27.8755,0,0.000885,0,0
0:2:4.577,495.599,28.0479,0,0.000885,0,0
0:2:5.369,498.646,28.2202,0,0.000885,0,0
0:2:6.163,502.164,28.4202,0,0.000885,0,0
0:2:6.951,506.039,28.6339,0,0.000885,0,0
0:2:7.745,509.143,28.8132,0,0.000885,0,0
0:2:8.532,512.489,28.9993,0,0.000885,0,0
0:2:9.337,516.594,29.2338,0,0.000885,0,0
0:2:10.139,520.291,29.4406,0,0.000885,0,0
0:2:10.930,523.516,29.6268,0,0.000885,0,0
0:2:11.721,526.914,29.8198,0,0.000885,0,0
0:2:12.510,530.081,29.9991,0,0.000885,0,0
0:2:13.302,533.248,30.1784,0,0.000885,0,0
0:2:14.097,537.123,30.3921,0,0.000885,0,0
0:2:14.902,540.815,30.6058,0,0.000885,0,0
0:2:15.696,544.453,30.8127,0,0.000885,0,0
0:2:16.491,548.145,31.0195,0,0.000885,0,0
0:2:17.278,551.255,31.1919,0,0.000885,0,0
0:2:18.067,554.248,31.3643,0,0.000885,0,0
0:2:18.866,558.354,31.5987,0,0.000885,0,0
0:2:19.668,562.166,31.8124,0,0.000885,0,0
0:2:20.461,565.333,31.9917,0,0.000885,0,0
0:2:21.270,568.558,32.1709,0,0.000885,0,0
0:2:22.075,572.193,32.3778,0,0.000885,0,0
0:2:22.882,576.125,32.6053,0,0.000885,0,0
0:2:23.675,580.64,32.8604,0,0.000885,0,0
0:2:24.481,583.749,33.0328,0,0.000885,0,0
0:2:25.282,586.623,33.1983,0,0.000885,0,0
0:2:26.070,589.732,33.3706,0,0.000885,0,0
0:2:26.871,593.66,33.5913,0,0.000885,0,0
0:2:27.679,597.361,33.805,0,0.000885,0,0
0:2:28.469,601.115,34.0187,0,0.000885,0,0
0:2:29.278,604.402,34.2049,0,0.000885,0,0
0:2:30.083,607.925,34.4048,0,0.000885,0,0
0:2:30.882,611.212,34.5841,0,0.000885,0,0
0:2:31.682,614.678,34.7841,0,0.000885,0,0
0:2:32.479,619.077,35.0323,0,0.000885,0,0
0:2:33.283,622.013,35.1977,0,0.000885,0,0
0:2:34.092,625.416,35.3908,0,0.000885,0,0
0:2:34.898,629.174,35.6045,0,0.000885,0,0
0:2:35.688,632.346,35.7838,0,0.000885,0,0
0:2:36.486,636.394,36.0113,0,0.000885,0,0
0:2:37.276,639.859,36.2113,0,0.000885,0,0
0:2:38.071,642.853,36.3767,0,0.000885,0,0
0:2:38.876,646.843,36.6043,0,0.000885,0,0
0:2:39.682,649.894,36.7766,0,0.000885,0,0
0:2:40.483,654.182,37.018,0,0.000885,0,0
0:2:41.283,656.998,37.1765,0,0.000885,0,0
0:2:42.083,660.872,37.3972,0,0.000885,0,0
0:2:42.883,664.511,37.604,0,0.000885,0,0
0:2:43.682,668.034,37.804,0,0.000885,0,0
0:2:44.491,671.437,37.997,0,0.000885,0,0
0:2:45.292,675.369,38.2176,0,0.000885,0,0
0:2:46.088,678.598,38.4038,0,0.000885,0,0
0:2:46.879,682.882,38.6451,0,0.000885,0,0
0:2:47.687,685.289,38.7761,0,0.000885,0,0
0:2:48.479,688.869,38.983,0,0.000885,0,0
0:2:49.288,692.57,39.1898,0,0.000885,0,0
0:2:50.093,695.858,39.376,0,0.000885,0,0
0:2:50.886,699.612,39.5897,0,0.000885,0,0
0:2:51.685,703.371,39.8034,0,0.000885,0,0
0:2:52.477,706.716,39.9896,0,0.000885,0,0
0:2:53.284,710.474,40.2033,0,0.000885,0,0
0:2:54.085,714.287,40.4171,0,0.000885,0,0
0:2:54.892,718.103,40.6377,0,0.000885,0,0
0:2:55.690,720.625,40.7825,0,0.000885,0,0
0:2:56.482,723.912,40.9618,0,0.000885,0,0
0:2:57.279,727.849,41.1893,0,0.000885,0,0
0:2:58.079,731.724,41.4099,0,0.000885,0,0
0:2:58.888,734.833,41.5823,0,0.000885,0,0
0:2:59.699,738.943,41.8167,0,0.000885,0,0
0:3:0.502,742.23,42.0029,0,0.000885,0,0
0:3:1.294,745.691,42.1959,0,0.000885,0,0
0:3:2.090,748.805,42.3752,0,0.000885,0,0
0:3:2.883,752.795,42.6027,0,0.000885,0,0
0:3:3.682,756.318,42.7958,0,0.000885,0,0
0:3:4.490,759.427,42.975,0,0.000885,0,0
0:3:5.290,763.244,43.1888,0,0.000885,0,0
0:3:6.087,766.473,43.3749,0,0.000885,0,0
0:3:6.887,769.053,43.5197,0,0.000885,0,0
0:3:7.684,771.873,43.6783,0,0.000885,0,0
0:3:8.473,772.282,43.699,0,0.000885,0,0
0:3:9.282,764.004,43.237,0,0.000885,0,0
0:3:10.082,578.878,32.757,0,0.000885,0,0
0:3:10.123,578.878,32.757,0,0.000885,0,0