File: DataFile2021-07-15_050657.csv
Test ID:,Date Tested:,Time:,Test Type:,Diameter Avg. (mm):,Cyl. Corr. Factor:,Height (mm):,Age (days):,Weight (kN):,Break Type:,Ramp Rate (MPa/s):,Load at Break (kN):,Stress at Break (MPa):
12,7/15/2021,05:06,Cylinder,150,1,300,0,3.6,3,0.25,1672.98,94.67
Sample Time,Load (kN),Stress (MPa),Long. Strain,Trans. Strain,Chan1 Deflection (mm),Chan2 Deflection (mm)
0:0:8.016,5.15994,0.28958,0,0.000885,0,0
0:0:9.605,12.6685,0.717055,0,0.000885,0,0
0:0:11.196,18.4735,1.048,0,0.000885,0,0
0:0:12.785,24.7499,1.39964,0,0.000885,0,0
0:0:14.397,33.2549,1.88227,0,0.000885,0,0
0:0:15.999,41.4085,2.34422,0,0.000885,0,0
0:0:17.593,47.8584,2.70964,0,0.000885,0,0
0:0:19.204,54.6642,3.09575,0,0.000885,0,0
0:0:20.802,61.5812,3.48185,0,0.000885,0,0
0:0:22.392,70.8513,4.00585,0,0.000885,0,0
0:0:23.999,76.069,4.30233,0,0.000885,0,0
0:0:25.600,82.4033,4.66086,0,0.000885,0,0
0:0:27.194,90.1477,5.10212,0,0.000885,0,0
0:0:28.797,97.4205,5.51581,0,0.000885,0,0
0:0:30.406,104.631,5.9226,0,0.000885,0,0
0:0:32.000,110.965,6.28112,0,0.000885,0,0
0:0:33.593,118.474,6.7017,0,0.000885,0,0
0:0:35.210,125.689,7.11539,0,0.000885,0,0
0:0:36.803,132.259,7.48081,0,0.000885,0,0
0:0:38.397,139.763,7.90829,0,0.000885,0,0
0:0:40.011,146.92,8.31508,0,0.000885,0,0
0:0:41.603,153.019,8.65982,0,0.000885,0,0
0:0:43.196,160.821,9.10108,0,0.000885,0,0
0:0:44.813,167.68,9.48719,0,0.000885,0,0
0:0:46.406,175.425,9.92845,0,0.000885,0,0
0:0:47.998,182.052,10.3008,0,0.000885,0,0
0:0:49.607,189.032,10.6938,0,0.000885,0,0
0:0:51.201,196.011,11.0937,0,0.000885,0,0
0:0:52.779,202.812,11.4798,0,0.000885,0,0
0:0:54.394,209.912,11.8797,0,0.000885,0,0
0:0:55.986,217.416,12.3002,0,0.000885,0,0
0:0:57.585,224.395,12.7001,0,0.000885,0,0
0:0:59.187,231.494,13.1,0,0.000885,0,0
0:1:0.782,238.002,13.4655,0,0.000885,0,0
0:1:2.382,245.159,13.8723,0,0.000885,0,0
0:1:3.985,252.784,14.3066,0,0.000885,0,0
0:1:5.589,260.056,14.7134,0,0.000885,0,0
0:1:7.189,266.275,15.065,0,0.000885,0,0
0:1:8.782,273.663,15.4856,0,0.000885,0,0
0:1:10.382,280.643,15.8786,0,0.000885,0,0
0:1:11.985,288.209,16.3061,0,0.000885,0,0
0:1:13.587,294.717,16.6784,0,0.000885,0,0
0:1:15.184,302.283,17.1059,0,0.000885,0,0
0:1:16.782,308.266,17.4437,0,0.000885,0,0
0:1:18.382,315.833,17.8712,0,0.000885,0,0
0:1:19.990,322.696,18.2642,0,0.000885,0,0
0:1:21.577,330.263,18.6917,0,0.000885,0,0
0:1:23.188,337.415,19.0916,0,0.000885,0,0
0:1:24.794,344.395,19.4915,0,0.000885,0,0
0:1:26.385,350.907,19.8569,0,0.000885,0,0
0:1:27.985,358.531,20.2913,0,0.000885,0,0
0:1:29.591,365.568,20.6843,0,0.000885,0,0
0:1:31.190,372.957,21.1049,0,0.000885,0,0
0:1:32.792,379.527,21.4772,0,0.000885,0,0
0:1:34.391,386.626,21.8771,0,0.000885,0,0
0:1:35.987,394.072,22.2976,0,0.000885,0,0
0:1:37.586,400.878,22.6838,0,0.000885,0,0
0:1:39.194,407.68,23.0699,0,0.000885,0,0
0:1:40.792,415.304,23.5042,0,0.000885,0,0
0:1:42.393,422.634,23.9179,0,0.000885,0,0
0:1:43.995,429.204,24.2902,0,0.000885,0,0
0:1:45.591,436.184,24.6832,0,0.000885,0,0
0:1:47.192,443.163,25.0762,0,0.000885,0,0
0:1:48.794,450.32,25.483,0,0.000885,0,0
0:1:50.386,457.709,25.9036,0,0.000885,0,0
0:1:51.994,464.394,26.2759,0,0.000885,0,0
0:1:53.595,471.489,26.6827,0,0.000885,0,0
0:1:55.195,478.94,27.1033,0,0.000885,0,0
0:1:56.787,485.39,27.4687,0,0.000885,0,0
0:1:58.389,492.605,27.8755,0,0.000885,0,0
0:1:59.991,500.407,28.3168,0,0.000885,0,0
0:2:1.588,507.444,28.7167,0,0.000885,0,0
0:2:3.190,514.423,29.1097,0,0.000885,0,0
0:2:4.795,520.7,29.4682,0,0.000885,0,0
0:2:6.390,528.676,29.9164,0,0.000885,0,0
0:2:7.991,535.361,30.2956,0,0.000885,0,0
0:2:9.599,542.398,30.6955,0,0.000885,0,0
0:2:11.194,549.729,31.1091,0,0.000885,0,0
0:2:12.794,556.886,31.5159,0,0.000885,0,0
0:2:14.393,563.514,31.8883,0,0.000885,0,0
0:2:15.992,570.084,32.2606,0,0.000885,0,0
0:2:17.591,577.708,32.6949,0,0.000885,0,0
0:2:19.201,585.155,33.1155,0,0.000885,0,0
0:2:20.789,592.081,33.5016,0,0.000885,0,0
0:2:22.396,599.3,33.9153,0,0.000885,0,0
0:2:23.997,605.99,34.2945,0,0.000885,0,0
0:2:25.594,612.916,34.6806,0,0.000885,0,0
0:2:27.191,620.078,35.0874,0,0.000885,0,0
0:2:28.801,627.181,35.4942,0,0.000885,0,0
0:2:30.407,634.343,35.8941,0,0.000885,0,0
0:2:31.996,641.62,36.3078,0,0.000885,0,0
0:2:33.594,647.723,36.6525,0,0.000885,0,0
0:2:35.207,655.299,37.08,0,0.000885,0,0
0:2:36.792,662.812,37.5075,0,0.000885,0,0
0:2:38.393,669.622,37.8936,0,0.000885,0,0
0:2:40.000,676.957,38.3073,0,0.000885,0,0
0:2:41.586,683.647,38.6865,0,0.000885,0,0
0:2:43.195,690.693,39.0864,0,0.000885,0,0
0:2:44.809,697.855,39.4932,0,0.000885,0,0
0:2:46.396,704.839,39.8862,0,0.000885,0,0
0:2:47.996,712.058,40.293,0,0.000885,0,0
0:2:49.601,719.865,40.7342,0,0.000885,0,0
0:2:51.195,725.621,41.0583,0,0.000885,0,0
0:2:52.799,733.894,41.5271,0,0.000885,0,0
0:2:54.410,739.882,41.8719,0,0.000885,0,0
0:2:56.000,747.043,42.2718,0,0.000885,0,0
0:2:57.587,754.734,42.7061,0,0.000885,0,0
0:2:59.206,762.132,43.1267,0,0.000885,0,0
0:3:0.802,768.235,43.4714,0,0.000885,0,0
0:3:2.388,775.863,43.9058,0,0.000885,0,0
0:3:3.999,782.909,44.3057,0,0.000885,0,0
0:3:5.599,789.306,44.6642,0,0.000885,0,0
0:3:7.185,797.112,45.1055,0,0.000885,0,0
0:3:8.801,804.043,45.4985,0,0.000885,0,0
0:3:10.408,810.617,45.8708,0,0.000885,0,0
0:3:11.996,818.188,46.2983,0,0.000885,0,0
0:3:13.603,824.585,46.6637,0,0.000885,0,0
0:3:15.209,832.098,47.0843,0,0.000885,0,0
0:3:16.799,839.317,47.498,0,0.000885,0,0
0:3:18.397,846.772,47.9186,0,0.000885,0,0
0:3:20.010,852.995,48.2702,0,0.000885,0,0
0:3:21.597,860.335,48.6839,0,0.000885,0,0
0:3:23.195,867.67,49.0976,0,0.000885,0,0
0:3:24.804,874.89,49.5113,0,0.000885,0,0
0:3:26.391,881.406,49.8767,0,0.000885,0,0
0:3:27.980,888.746,50.2904,0,0.000885,0,0
0:3:29.595,896.081,50.7109,0,0.000885,0,0
0:3:31.195,902.655,51.0833,0,0.000885,0,0
0:3:32.805,910.053,51.4969,0,0.000885,0,0
0:3:34.410,916.863,51.883,0,0.000885,0,0
0:3:36.006,924.492,52.3174,0,0.000885,0,0
0:3:37.592,931.538,52.7173,0,0.000885,0,0
0:3:39.206,937.934,53.0758,0,0.000885,0,0
0:3:40.803,945.038,53.4757,0,0.000885,0,0
0:3:42.393,952.257,53.8894,0,0.000885,0,0
0:3:44.002,959.299,54.2824,0,0.000885,0,0
0:3:45.605,966.518,54.6961,0,0.000885,0,0
0:3:47.203,973.213,55.0753,0,0.000885,0,0
0:3:48.800,980.139,55.4614,0,0.000885,0,0
0:3:50.401,987.652,55.8889,0,0.000885,0,0
0:3:51.998,994.636,56.2819,0,0.000885,0,0
0:3:53.600,1002.21,56.7163,0,0.000885,0,0
0:3:55.206,1008.79,57.0886,0,0.000885,0,0
0:3:56.795,1016.12,57.5023,0,0.000885,0,0
0:3:58.392,1022.64,57.8677,0,0.000885,0,0
0:4:0.009,1030.09,58.2883,0,0.000885,0,0
0:4:1.594,1037.02,58.6813,0,0.000885,0,0
0:4:3.192,1044.3,59.095,0,0.000885,0,0
0:4:4.805,1051.05,59.4742,0,0.000885,0,0
0:4:6.402,1058.68,59.9085,0,0.000885,0,0
0:4:7.986,1065.43,60.2878,0,0.000885,0,0
0:4:9.608,1072.65,60.7014,0,0.000885,0,0
0:4:11.195,1079.63,61.0944,0,0.000885,0,0
0:4:12.785,1086.74,61.4943,0,0.000885,0,0
0:4:14.414,1094.08,61.9149,0,0.000885,0,0
0:4:16.009,1100.18,62.2597,0,0.000885,0,0
0:4:17.607,1108.1,62.7078,0,0.000885,0,0
0:4:19.207,1114.74,63.0801,0,0.000885,0,0
0:4:20.806,1122.6,63.5283,0,0.000885,0,0
0:4:22.391,1129.06,63.8937,0,0.000885,0,0
0:4:23.994,1136.04,64.2867,0,0.000885,0,0
0:4:25.591,1143.26,64.6935,0,0.000885,0,0
0:4:27.191,1150.37,65.1003,0,0.000885,0,0
0:4:28.802,1156.82,65.4657,0,0.000885,0,0
0:4:30.406,1164.46,65.8932,0,0.000885,0,0
0:4:31.991,1171.55,66.2931,0,0.000885,0,0
0:4:33.582,1178.54,66.693,0,0.000885,0,0
0:4:35.203,1185.12,67.0653,0,0.000885,0,0
0:4:36.790,1192.69,67.4928,0,0.000885,0,0
0:4:38.389,1199.97,67.9065,0,0.000885,0,0
0:4:40.007,1206.89,68.2995,0,0.000885,0,0
0:4:41.605,1214.23,68.7132,0,0.000885,0,0
0:4:43.199,1220.81,69.0855,0,0.000885,0,0
0:4:44.820,1227.62,69.4716,0,0.000885,0,0
0:4:46.412,1234.84,69.8784,0,0.000885,0,0
0:4:48.001,1242.17,70.2921,0,0.000885,0,0
0:4:49.618,1249.22,70.6919,0,0.000885,0,0
0:4:51.217,1256.85,71.1263,0,0.000885,0,0
0:4:52.803,1263.18,71.4848,0,0.000885,0,0
0:4:54.411,1270.52,71.8985,0,0.000885,0,0
0:4:55.999,1277.57,72.2984,0,0.000885,0,0
0:4:57.597,1284.5,72.6845,0,0.000885,0,0
0:4:59.205,1292.07,73.1189,0,0.000885,0,0
0:5:0.811,1298.81,73.4981,0,0.000885,0,0
0:5:2.397,1305.74,73.8911,0,0.000885,0,0
0:5:4.007,1312.38,74.2634,0,0.000885,0,0
0:5:5.609,1320.01,74.6978,0,0.000885,0,0
0:5:7.195,1327.22,75.1046,0,0.000885,0,0
0:5:8.796,1334.39,75.5114,0,0.000885,0,0
0:5:10.395,1340.49,75.8561,0,0.000885,0,0
0:5:12.001,1348.06,76.2836,0,0.000885,0,0
0:5:13.600,1355.05,76.6835,0,0.000885,0,0
0:5:15.209,1362.5,77.1041,0,0.000885,0,0
0:5:16.796,1369.67,77.504,0,0.000885,0,0
0:5:18.394,1376.42,77.8901,0,0.000885,0,0
0:5:20.009,1383.46,78.29,0,0.000885,0,0
0:5:21.602,1391.21,78.7243,0,0.000885,0,0
0:5:23.213,1397.37,79.076,0,0.000885,0,0
0:5:24.822,1404.83,79.4966,0,0.000885,0,0
0:5:26.412,1411.7,79.8827,0,0.000885,0,0
0:5:28.009,1419.09,80.3032,0,0.000885,0,0
0:5:29.622,1426.72,80.7376,0,0.000885,0,0
0:5:31.211,1432.3,81.0548,0,0.000885,0,0
0:5:32.800,1440.17,81.496,0,0.000885,0,0
0:5:34.417,1447.21,81.8959,0,0.000885,0,0
0:5:36.013,1453.78,82.2682,0,0.000885,0,0
0:5:37.609,1461.06,82.6819,0,0.000885,0,0
0:5:39.211,1468.99,83.1301,0,0.000885,0,0
0:5:40.806,1474.79,83.4541,0,0.000885,0,0
0:5:42.405,1482.32,83.8816,0,0.000885,0,0
0:5:44.014,1490.33,84.3367,0,0.000885,0,0
0:5:45.612,1496.15,84.6676,0,0.000885,0,0
0:5:47.209,1503.75,85.0951,0,0.000885,0,0
0:5:48.817,1511.11,85.5088,0,0.000885,0,0
0:5:50.419,1517.47,85.8742,0,0.000885,0,0
0:5:52.006,1525.01,86.2948,0,0.000885,0,0
0:5:53.597,1531.37,86.6602,0,0.000885,0,0
0:5:55.204,1539.08,87.0946,0,0.000885,0,0
0:5:56.802,1546.62,87.522,0,0.000885,0,0
0:5:58.392,1552.63,87.8599,0,0.000885,0,0
0:6:0.004,1560.16,88.2874,0,0.000885,0,0
0:6:1.604,1567.11,88.6804,0,0.000885,0,0
0:6:3.213,1573.76,89.0596,0,0.000885,0,0
0:6:4.827,1581.53,89.4939,0,0.000885,0,0
0:6:6.414,1588.95,89.9145,0,0.000885,0,0
0:6:7.999,1595.2,90.2731,0,0.000885,0,0
0:6:9.621,1602.56,90.6867,0,0.000885,0,0
0:6:11.209,1609.74,91.0935,0,0.000885,0,0
0:6:12.809,1616.57,91.4796,0,0.000885,0,0
0:6:14.418,1623.93,91.8933,0,0.000885,0,0
0:6:16.014,1630.88,92.2863,0,0.000885,0,0
0:6:17.601,1637.59,92.6655,0,0.000885,0,0
0:6:19.207,1644.13,93.0379,0,0.000885,0,0
0:6:20.801,1651.37,93.4515,0,0.000885,0,0
0:6:22.399,1659.26,93.8928,0,0.000885,0,0
0:6:24.022,1666.33,94.2927,0,0.000885,0,0
0:6:25.619,1671.33,94.5754,0,0.000885,0,0
0:6:27.214,1669.27,94.4582,0,0.000885,0,0
0:6:28.807,1587.66,89.8456,0,0.000885,0,0
0:6:29.662,1406.35,79.5862,0,0.000885,0,0