File: DataFile2021-07-25_070244.csv
Test ID:,Date Tested:,Time:,Test Type:,Diameter Avg. (mm):,Cyl. Corr. Factor:,Height (mm):,Age (days):,Weight (kN):,Break Type:,Ramp Rate (MPa/s):,Load at Break (kN):,Stress at Break (MPa):
12,7/25/2021,07:02,Cylinder,100,1,200,0,3.5,3,0.3,211.61,26.94
Sample Time,Load (kN),Stress (MPa),Long. Strain,Trans. Strain,Chan1 Deflection (mm),Chan2 Deflection (mm)
0:0:15.458,7.91783,1.00663,0,0.000885,0,0
0:0:15.853,14.8393,1.88916,0,0.000885,0,0
0:0:16.255,14.4879,1.84779,0,0.000885,0,0
0:0:16.651,14.2521,1.81332,0,0.000885,0,0
0:0:17.057,14.2521,1.81332,0,0.000885,0,0
0:0:17.451,13.9007,1.77195,0,0.000885,0,0
0:0:17.848,13.8429,1.76506,0,0.000885,0,0
0:0:18.257,13.7228,1.74437,0,0.000885,0,0
0:0:18.652,14.1364,1.79953,0,0.000885,0,0
0:0:19.047,13.3714,1.70301,0,0.000885,0,0
0:0:19.453,14.7192,1.87537,0,0.000885,0,0
0:0:19.852,14.8393,1.88916,0,0.000885,0,0
0:0:20.250,16.5385,2.1029,0,0.000885,0,0
0:0:20.647,17.8863,2.27527,0,0.000885,0,0
0:0:21.052,19.7634,2.51659,0,0.000885,0,0
0:0:21.457,20.8221,2.64759,0,0.000885,0,0
0:0:21.861,22.0543,2.80617,0,0.000885,0,0
0:0:22.264,23.4599,2.98543,0,0.000885,0,0
0:0:22.663,25.2214,3.21296,0,0.000885,0,0
0:0:23.059,26.0977,3.32327,0,0.000885,0,0
0:0:23.461,27.8592,3.54391,0,0.000885,0,0
0:0:23.859,28.8556,3.67491,0,0.000885,0,0
0:0:24.254,30.0299,3.82659,0,0.000885,0,0
0:0:24.651,31.5557,4.01964,0,0.000885,0,0
0:0:25.049,32.2585,4.10928,0,0.000885,0,0
0:0:25.450,33.4328,4.25407,0,0.000885,0,0
0:0:25.857,34.0156,4.32991,0,0.000885,0,0
0:0:26.263,34.7806,4.42643,0,0.000885,0,0
0:0:26.669,35.8349,4.56433,0,0.000885,0,0
0:0:27.073,36.7734,4.68154,0,0.000885,0,0
0:0:27.477,37.89,4.82633,0,0.000885,0,0
0:0:27.874,38.8285,4.94354,0,0.000885,0,0
0:0:28.271,40.1763,5.11591,0,0.000885,0,0
0:0:28.669,41.6398,5.30207,0,0.000885,0,0
0:0:29.071,43.1077,5.48823,0,0.000885,0,0
0:0:29.468,44.2242,5.63302,0,0.000885,0,0
0:0:29.864,44.6335,5.68128,0,0.000885,0,0
0:0:30.261,45.9234,5.84675,0,0.000885,0,0
0:0:30.661,46.9198,5.97086,0,0.000885,0,0
0:0:31.062,47.507,6.0467,0,0.000885,0,0
0:0:31.469,48.6191,6.19149,0,0.000885,0,0
0:0:31.875,50.087,6.37765,0,0.000885,0,0
0:0:32.278,51.4971,6.55691,0,0.000885,0,0
0:0:32.679,52.4935,6.68102,0,0.000885,0,0
0:0:33.078,53.6055,6.82581,0,0.000885,0,0
0:0:33.476,54.7798,6.97749,0,0.000885,0,0
0:0:33.871,55.6606,7.08781,0,0.000885,0,0
0:0:34.272,56.657,7.21192,0,0.000885,0,0
0:0:34.671,57.7691,7.35671,0,0.000885,0,0
0:0:35.068,58.7699,7.48081,0,0.000885,0,0
0:0:35.466,60.0599,7.64629,0,0.000885,0,0
0:0:35.871,61.2298,7.79797,0,0.000885,0,0
0:0:36.277,62.582,7.97034,0,0.000885,0,0
0:0:36.681,63.6363,8.10134,0,0.000885,0,0
0:0:37.084,65.162,8.29439,0,0.000885,0,0
0:0:37.483,65.5712,8.34955,0,0.000885,0,0
0:0:37.879,66.8034,8.50813,0,0.000885,0,0
0:0:38.281,67.6219,8.61155,0,0.000885,0,0
0:0:38.681,68.9163,8.77703,0,0.000885,0,0
0:0:39.078,70.3798,8.96318,0,0.000885,0,0
0:0:39.474,71.4963,9.10108,0,0.000885,0,0
0:0:39.871,72.0834,9.17692,0,0.000885,0,0
0:0:40.272,73.1377,9.31482,0,0.000885,0,0
0:0:40.672,74.4855,9.48719,0,0.000885,0,0
0:0:41.077,75.424,9.6044,0,0.000885,0,0
0:0:41.483,76.5405,9.74229,0,0.000885,0,0
0:0:41.886,77.537,9.87329,0,0.000885,0,0
0:0:42.289,78.5334,9.9974,0,0.000885,0,0
0:0:42.686,79.5298,10.1284,0,0.000885,0,0
0:0:43.084,80.7041,10.2732,0,0.000885,0,0
0:0:43.480,81.7583,10.4111,0,0.000885,0,0
0:0:43.881,83.3997,10.6179,0,0.000885,0,0
0:0:44.280,84.8676,10.8041,0,0.000885,0,0
0:0:44.677,85.7484,10.9144,0,0.000885,0,0
0:0:45.075,87.2741,11.1143,0,0.000885,0,0
0:0:45.470,87.9769,11.204,0,0.000885,0,0
0:0:45.872,88.7954,11.3074,0,0.000885,0,0
0:0:46.280,89.6761,11.4177,0,0.000885,0,0
0:0:46.684,91.3175,11.6246,0,0.000885,0,0
0:0:47.086,92.1405,11.7349,0,0.000885,0,0
0:0:47.486,93.2525,11.8728,0,0.000885,0,0
0:0:47.887,94.2534,12.0038,0,0.000885,0,0
0:0:48.286,95.3076,12.1348,0,0.000885,0,0
0:0:48.683,96.949,12.3416,0,0.000885,0,0
0:0:49.080,98.1233,12.4933,0,0.000885,0,0
0:0:49.478,98.5904,12.5554,0,0.000885,0,0
0:0:49.878,99.3555,12.6519,0,0.000885,0,0
0:0:50.278,100.645,12.8174,0,0.000885,0,0
0:0:50.673,101.758,12.9552,0,0.000885,0,0
0:0:51.078,102.754,13.0862,0,0.000885,0,0
0:0:51.484,104.106,13.2517,0,0.000885,0,0
0:0:51.888,105.512,13.431,0,0.000885,0,0
0:0:52.291,106.628,13.5758,0,0.000885,0,0
0:0:52.690,107.447,13.6792,0,0.000885,0,0
0:0:53.087,108.737,13.8447,0,0.000885,0,0
0:0:53.487,109.911,13.9964,0,0.000885,0,0
0:0:53.887,110.734,14.0998,0,0.000885,0,0
0:0:54.284,111.73,14.2239,0,0.000885,0,0
0:0:54.679,112.727,14.3549,0,0.000885,0,0
0:0:55.078,113.781,14.4859,0,0.000885,0,0
0:0:55.479,114.955,14.6376,0,0.000885,0,0
0:0:55.876,116.361,14.8168,0,0.000885,0,0
0:0:56.281,117.887,15.0099,0,0.000885,0,0
0:0:56.685,118.532,15.0926,0,0.000885,0,0
0:0:57.088,119.706,15.2443,0,0.000885,0,0
0:0:57.493,120.996,15.4029,0,0.000885,0,0
0:0:57.891,122.286,15.5684,0,0.000885,0,0
0:0:58.286,123.403,15.7132,0,0.000885,0,0
0:0:58.684,124.105,15.8028,0,0.000885,0,0
0:0:59.084,125.16,15.9338,0,0.000885,0,0
0:0:59.483,125.805,16.0165,0,0.000885,0,0
0:0:59.883,127.152,16.1889,0,0.000885,0,0
0:1:0.277,128.563,16.3682,0,0.000885,0,0
0:1:0.675,129.15,16.444,0,0.000885,0,0
0:1:1.078,130.44,16.6095,0,0.000885,0,0
0:1:1.483,131.32,16.7198,0,0.000885,0,0
0:1:1.888,132.49,16.8715,0,0.000885,0,0
0:1:2.290,133.78,17.0369,0,0.000885,0,0
0:1:2.689,134.955,17.1817,0,0.000885,0,0
0:1:3.091,135.893,17.3058,0,0.000885,0,0
0:1:3.488,136.947,17.4368,0,0.000885,0,0
0:1:3.882,137.944,17.5609,0,0.000885,0,0
0:1:4.282,139.527,17.7678,0,0.000885,0,0
0:1:4.682,140.528,17.8919,0,0.000885,0,0
0:1:5.079,141.876,18.0643,0,0.000885,0,0
0:1:5.477,142.988,18.2091,0,0.000885,0,0
0:1:5.880,143.46,18.2642,0,0.000885,0,0
0:1:6.287,144.928,18.4504,0,0.000885,0,0
0:1:6.690,146.391,18.6365,0,0.000885,0,0
0:1:7.095,147.214,18.7468,0,0.000885,0,0
0:1:7.491,148.504,18.9054,0,0.000885,0,0
0:1:7.889,149.265,19.002,0,0.000885,0,0
0:1:8.291,150.381,19.1467,0,0.000885,0,0
0:1:8.688,151.377,19.2708,0,0.000885,0,0
0:1:9.084,152.61,19.4294,0,0.000885,0,0
0:1:9.481,153.548,19.5535,0,0.000885,0,0
0:1:9.882,154.718,19.6983,0,0.000885,0,0
0:1:10.281,155.541,19.8017,0,0.000885,0,0
0:1:10.679,156.773,19.9603,0,0.000885,0,0
0:1:11.085,157.77,20.0844,0,0.000885,0,0
0:1:11.489,159.002,20.243,0,0.000885,0,0
0:1:11.892,160.056,20.3809,0,0.000885,0,0
0:1:12.296,161.23,20.5257,0,0.000885,0,0
0:1:12.693,162.227,20.6567,0,0.000885,0,0
0:1:13.089,163.281,20.7877,0,0.000885,0,0
0:1:13.490,164.633,20.9601,0,0.000885,0,0
0:1:13.888,165.452,21.0635,0,0.000885,0,0
0:1:14.285,166.92,21.2496,0,0.000885,0,0
0:1:14.681,168.209,21.4151,0,0.000885,0,0
0:1:15.080,168.912,21.5047,0,0.000885,0,0
0:1:15.479,170.087,21.6564,0,0.000885,0,0
0:1:15.878,171.319,21.815,0,0.000885,0,0
0:1:16.285,172.667,21.9874,0,0.000885,0,0
0:1:16.689,173.899,22.1391,0,0.000885,0,0
0:1:17.093,174.722,22.2494,0,0.000885,0,0
0:1:17.495,175.54,22.3528,0,0.000885,0,0
0:1:17.891,175.949,22.4011,0,0.000885,0,0
0:1:18.287,177.417,22.5872,0,0.000885,0,0
0:1:18.686,178.649,22.7458,0,0.000885,0,0
0:1:19.086,180.055,22.9251,0,0.000885,0,0
0:1:19.484,181.172,23.0699,0,0.000885,0,0
0:1:19.880,182.284,23.2078,0,0.000885,0,0
0:1:20.276,183.342,23.3456,0,0.000885,0,0
0:1:20.677,184.161,23.4491,0,0.000885,0,0
0:1:21.077,185.277,23.587,0,0.000885,0,0
0:1:21.483,186.389,23.7318,0,0.000885,0,0
0:1:21.887,187.622,23.8903,0,0.000885,0,0
0:1:22.289,188.387,23.9869,0,0.000885,0,0
0:1:22.693,189.499,24.1248,0,0.000885,0,0
0:1:23.090,191.082,24.3316,0,0.000885,0,0
0:1:23.486,191.847,24.4281,0,0.000885,0,0
0:1:23.882,192.492,24.5109,0,0.000885,0,0
0:1:24.281,193.547,24.6419,0,0.000885,0,0
0:1:24.677,194.721,24.7935,0,0.000885,0,0
0:1:25.071,195.953,24.9521,0,0.000885,0,0
0:1:25.463,196.598,25.0349,0,0.000885,0,0
0:1:25.864,197.594,25.159,0,0.000885,0,0
0:1:26.268,198.591,25.2831,0,0.000885,0,0
0:1:26.668,200.117,25.4761,0,0.000885,0,0
0:1:27.068,200.704,25.552,0,0.000885,0,0
0:1:27.463,201.407,25.6416,0,0.000885,0,0
0:1:27.860,202.639,25.8002,0,0.000885,0,0
0:1:28.254,204.102,25.9863,0,0.000885,0,0
0:1:28.661,204.809,26.076,0,0.000885,0,0
0:1:29.063,206.037,26.2346,0,0.000885,0,0
0:1:29.461,207.332,26.4,0,0.000885,0,0
0:1:29.857,208.386,26.531,0,0.000885,0,0
0:1:30.260,208.795,26.5862,0,0.000885,0,0
0:1:30.650,209.324,26.6551,0,0.000885,0,0
0:1:31.054,209.912,26.7241,0,0.000885,0,0
0:1:31.458,210.085,26.7517,0,0.000885,0,0
0:1:31.857,209.849,26.7172,0,0.000885,0,0
0:1:32.258,210.143,26.7586,0,0.000885,0,0
0:1:32.660,210.085,26.7517,0,0.000885,0,0
0:1:33.055,210.557,26.8068,0,0.000885,0,0
0:1:33.463,211.144,26.8827,0,0.000885,0,0
0:1:33.858,211.611,26.9447,0,0.000885,0,0
0:1:34.260,211.495,26.9309,0,0.000885,0,0
0:1:34.663,210.966,26.862,0,0.000885,0,0
0:1:35.060,210.557,26.8068,0,0.000885,0,0
0:1:35.455,209.324,26.6551,0,0.000885,0,0
0:1:35.859,207.154,26.3724,0,0.000885,0,0
0:1:36.259,204.809,26.076,0,0.000885,0,0
0:1:36.660,200.641,25.5451,0,0.000885,0,0
0:1:37.059,193.017,24.5729,0,0.000885,0,0
0:1:37.462,181.817,23.1526,0,0.000885,0,0
0:1:37.858,164.691,20.967,0,0.000885,0,0
0:1:38.263,151.262,19.2571,0,0.000885,0,0
0:1:38.312,151.262,19.2571,0,0.000885,0,0