File: DataFile2021-07-03_084454.csv
Test ID:,Date Tested:,Time:,Test Type:,Diameter Avg. (mm):,Cyl. Corr. Factor:,Height (mm):,Age (days):,Weight (kN):,Break Type:,Ramp Rate (MPa/s):,Load at Break (kN):,Stress at Break (MPa):
12,7/3/2021,08:44,Cylinder,100,1,200,0,3.6,3,0.25,615.44,78.36
Sample Time,Load (kN),Stress (MPa),Long. Strain,Trans. Strain,Chan1 Deflection (mm),Chan2 Deflection (mm)
0:0:19.590,6.15634,0.786002,0,0.000885,0,0
0:0:20.978,12.9043,1.64095,0,0.000885,0,0
0:0:22.369,11.8456,1.50995,0,0.000885,0,0
0:0:23.758,12.6685,1.61337,0,0.000885,0,0
0:0:25.155,14.7192,1.87537,0,0.000885,0,0
0:0:26.562,18.3,2.33043,0,0.000885,0,0
0:0:27.958,22.2856,2.84064,0,0.000885,0,0
0:0:29.350,24.8077,3.1578,0,0.000885,0,0
0:0:30.759,26.6271,3.39222,0,0.000885,0,0
0:0:32.160,29.5006,3.75764,0,0.000885,0,0
0:0:33.554,32.3742,4.12306,0,0.000885,0,0
0:0:34.955,36.1285,4.5988,0,0.000885,0,0
0:0:36.370,38.0634,4.84701,0,0.000885,0,0
0:0:37.767,40.6434,5.17796,0,0.000885,0,0
0:0:39.162,43.7527,5.57096,0,0.000885,0,0
0:0:40.571,46.1592,5.87433,0,0.000885,0,0
0:0:41.969,49.2685,6.27423,0,0.000885,0,0
0:0:43.365,51.5549,6.56381,0,0.000885,0,0
0:0:44.758,54.4863,6.93613,0,0.000885,0,0
0:0:46.172,57.4755,7.31534,0,0.000885,0,0
0:0:47.567,59.882,7.6256,0,0.000885,0,0
0:0:48.961,62.7555,7.99102,0,0.000885,0,0
0:0:50.363,65.2777,8.30818,0,0.000885,0,0
0:0:51.768,68.209,8.68739,0,0.000885,0,0
0:0:53.163,71.2605,9.0735,0,0.000885,0,0
0:0:54.556,73.7248,9.38376,0,0.000885,0,0
0:0:55.965,76.7719,9.77677,0,0.000885,0,0
0:0:57.366,78.9426,10.0526,0,0.000885,0,0
0:0:58.761,82.2298,10.4662,0,0.000885,0,0
0:1:0.162,84.9254,10.811,0,0.000885,0,0
0:1:1.567,87.154,11.0937,0,0.000885,0,0
0:1:2.962,90.4412,11.5142,0,0.000885,0,0
0:1:4.353,93.4883,11.9004,0,0.000885,0,0
0:1:5.762,95.7168,12.1899,0,0.000885,0,0
0:1:7.163,98.8261,12.5829,0,0.000885,0,0
0:1:8.558,101.233,12.8863,0,0.000885,0,0
0:1:9.956,103.461,13.1759,0,0.000885,0,0
0:1:11.370,107.038,13.6309,0,0.000885,0,0
0:1:12.766,109.15,13.8998,0,0.000885,0,0
0:1:14.160,112.491,14.3204,0,0.000885,0,0
0:1:15.570,115.191,14.6651,0,0.000885,0,0
0:1:16.967,117.184,14.9203,0,0.000885,0,0
0:1:18.362,120.467,15.3408,0,0.000885,0,0
0:1:19.755,123.167,15.6787,0,0.000885,0,0
0:1:21.170,125.925,16.0303,0,0.000885,0,0
0:1:22.565,128.798,16.3957,0,0.000885,0,0
0:1:23.957,131.436,16.7336,0,0.000885,0,0
0:1:25.356,133.958,17.0576,0,0.000885,0,0
0:1:26.763,137.068,17.4506,0,0.000885,0,0
0:1:28.159,139.763,17.7954,0,0.000885,0,0
0:1:29.562,142.93,18.1953,0,0.000885,0,0
0:1:30.970,145.337,18.5055,0,0.000885,0,0
0:1:32.369,148.268,18.8778,0,0.000885,0,0
0:1:33.764,150.439,19.1536,0,0.000885,0,0
0:1:35.165,153.779,19.5811,0,0.000885,0,0
0:1:36.571,156.244,19.8914,0,0.000885,0,0
0:1:37.968,158.944,20.2361,0,0.000885,0,0
0:1:39.361,161.991,20.6222,0,0.000885,0,0
0:1:40.768,164.575,20.9532,0,0.000885,0,0
0:1:42.167,167.097,21.2772,0,0.000885,0,0
0:1:43.563,170.144,21.6633,0,0.000885,0,0
0:1:44.965,172.609,21.9805,0,0.000885,0,0
0:1:46.380,175.425,22.339,0,0.000885,0,0
0:1:47.774,177.889,22.6493,0,0.000885,0,0
0:1:49.169,181.229,23.0768,0,0.000885,0,0
0:1:50.574,183.752,23.3939,0,0.000885,0,0
0:1:51.978,186.216,23.7111,0,0.000885,0,0
0:1:53.371,189.205,24.0903,0,0.000885,0,0
0:1:54.767,192.199,24.4695,0,0.000885,0,0
0:1:56.170,194.952,24.8211,0,0.000885,0,0
0:1:57.558,197.474,25.1452,0,0.000885,0,0
0:1:58.947,200.174,25.4899,0,0.000885,0,0
0:2:0.357,203.399,25.8967,0,0.000885,0,0
0:2:1.748,205.922,26.2208,0,0.000885,0,0
0:2:3.159,208.679,26.5724,0,0.000885,0,0
0:2:4.553,211.317,26.9033,0,0.000885,0,0
0:2:5.952,213.724,27.2136,0,0.000885,0,0
0:2:7.350,216.833,27.6066,0,0.000885,0,0
0:2:8.743,219.586,27.9582,0,0.000885,0,0
0:2:10.148,222.166,28.2892,0,0.000885,0,0
0:2:11.553,225.276,28.6822,0,0.000885,0,0
0:2:12.962,227.74,28.9993,0,0.000885,0,0
0:2:14.357,229.911,29.2751,0,0.000885,0,0
0:2:15.769,233.194,29.6888,0,0.000885,0,0
0:2:17.154,235.894,30.0336,0,0.000885,0,0
0:2:18.557,238.825,30.4059,0,0.000885,0,0
0:2:19.951,241.521,30.7506,0,0.000885,0,0
0:2:21.353,244.043,31.0747,0,0.000885,0,0
0:2:22.744,246.859,31.4332,0,0.000885,0,0
0:2:24.147,249.91,31.8193,0,0.000885,0,0
0:2:25.552,252.254,32.1158,0,0.000885,0,0
0:2:26.952,254.719,32.4329,0,0.000885,0,0
0:2:28.345,258.237,32.8811,0,0.000885,0,0
0:2:29.767,261.053,33.2396,0,0.000885,0,0
0:2:31.167,263.633,33.5637,0,0.000885,0,0
0:2:32.553,266.391,33.9153,0,0.000885,0,0
0:2:33.961,269.028,34.2532,0,0.000885,0,0
0:2:35.362,271.786,34.6048,0,0.000885,0,0
0:2:36.766,274.308,34.9288,0,0.000885,0,0
0:2:38.154,276.946,35.2598,0,0.000885,0,0
0:2:39.543,280.113,35.6666,0,0.000885,0,0
0:2:40.947,282.578,35.9768,0,0.000885,0,0
0:2:42.344,285.042,36.294,0,0.000885,0,0
0:2:43.721,288.267,36.7008,0,0.000885,0,0
0:2:45.110,291.025,37.0524,0,0.000885,0,0
0:2:46.512,293.841,37.411,0,0.000885,0,0
0:2:47.897,296.185,37.7143,0,0.000885,0,0
0:2:49.278,298.885,38.0522,0,0.000885,0,0
0:2:50.677,301.465,38.3831,0,0.000885,0,0
0:2:52.069,304.632,38.7899,0,0.000885,0,0
0:2:53.454,306.976,39.0864,0,0.000885,0,0
0:2:54.845,310.086,39.4794,0,0.000885,0,0
0:2:56.251,312.314,39.7621,0,0.000885,0,0
0:2:57.669,315.597,40.1826,0,0.000885,0,0
0:2:59.056,318.177,40.5136,0,0.000885,0,0
0:3:0.466,320.761,40.8376,0,0.000885,0,0
0:3:1.859,323.986,41.2513,0,0.000885,0,0
0:3:3.243,326.451,41.5616,0,0.000885,0,0
0:3:4.644,329.146,41.9063,0,0.000885,0,0
0:3:6.052,331.962,42.2649,0,0.000885,0,0
0:3:7.470,334.72,42.6165,0,0.000885,0,0
0:3:8.858,337.242,42.9405,0,0.000885,0,0
0:3:10.258,340.231,43.3198,0,0.000885,0,0
0:3:11.660,342.931,43.6645,0,0.000885,0,0
0:3:13.063,345.511,43.9886,0,0.000885,0,0
0:3:14.461,347.975,44.3057,0,0.000885,0,0
0:3:15.868,351.374,44.7401,0,0.000885,0,0
0:3:17.256,353.487,45.009,0,0.000885,0,0
0:3:18.638,356.89,45.4433,0,0.000885,0,0
0:3:20.029,359.879,45.8226,0,0.000885,0,0
0:3:21.430,361.872,46.0777,0,0.000885,0,0
0:3:22.813,364.572,46.4155,0,0.000885,0,0
0:3:24.193,367.681,46.8154,0,0.000885,0,0
0:3:25.592,370.083,47.1188,0,0.000885,0,0
0:3:26.986,373.486,47.5531,0,0.000885,0,0
0:3:28.366,375.772,47.8427,0,0.000885,0,0
0:3:29.772,378.063,48.1392,0,0.000885,0,0
0:3:31.177,380.581,48.4564,0,0.000885,0,0
0:3:32.558,384.335,48.9321,0,0.000885,0,0
0:3:33.940,387.271,49.3113,0,0.000885,0,0
0:3:35.338,389.322,49.5733,0,0.000885,0,0
0:3:36.733,392.253,49.9456,0,0.000885,0,0
0:3:38.114,394.895,50.2766,0,0.000885,0,0
0:3:39.498,397.591,50.6213,0,0.000885,0,0
0:3:40.901,399.704,50.8902,0,0.000885,0,0
0:3:42.289,403.165,51.3315,0,0.000885,0,0
0:3:43.671,405.745,51.6624,0,0.000885,0,0
0:3:45.076,408.56,52.0209,0,0.000885,0,0
0:3:46.472,411.082,52.3381,0,0.000885,0,0
0:3:47.861,414.25,52.7449,0,0.000885,0,0
0:3:49.256,416.42,53.0207,0,0.000885,0,0
0:3:50.660,419.645,53.4275,0,0.000885,0,0
0:3:52.068,422.225,53.7584,0,0.000885,0,0
0:3:53.448,424.863,54.0963,0,0.000885,0,0
0:3:54.835,427.621,54.4479,0,0.000885,0,0
0:3:56.242,430.201,54.772,0,0.000885,0,0
0:3:57.621,432.839,55.1098,0,0.000885,0,0
0:3:59.007,435.539,55.4545,0,0.000885,0,0
0:4:0.408,438.354,55.8131,0,0.000885,0,0
0:4:1.796,442.051,56.2819,0,0.000885,0,0
0:4:3.178,444.102,56.5439,0,0.000885,0,0
0:4:4.574,446.917,56.9024,0,0.000885,0,0
0:4:5.980,449.613,57.2472,0,0.000885,0,0
0:4:7.371,452.255,57.585,0,0.000885,0,0
0:4:8.765,454.657,57.8884,0,0.000885,0,0
0:4:10.174,457.006,58.1849,0,0.000885,0,0
0:4:11.564,460.173,58.5916,0,0.000885,0,0
0:4:12.945,462.753,58.9226,0,0.000885,0,0
0:4:14.331,465.92,59.3225,0,0.000885,0,0
0:4:15.733,468.972,59.7086,0,0.000885,0,0
0:4:17.121,471.667,60.0533,0,0.000885,0,0
0:4:18.505,473.896,60.336,0,0.000885,0,0
0:4:19.902,476.889,60.7221,0,0.000885,0,0
0:4:21.297,479.821,61.0944,0,0.000885,0,0
0:4:22.679,482.516,61.4392,0,0.000885,0,0
0:4:24.070,484.923,61.7426,0,0.000885,0,0
0:4:25.473,487.619,62.0873,0,0.000885,0,0
0:4:26.872,490.906,62.501,0,0.000885,0,0
0:4:28.262,492.956,62.763,0,0.000885,0,0
0:4:29.671,495.95,63.1491,0,0.000885,0,0
0:4:31.071,499.055,63.5421,0,0.000885,0,0
0:4:32.474,501.577,63.8661,0,0.000885,0,0
0:4:33.862,503.984,64.1695,0,0.000885,0,0
0:4:35.261,506.857,64.5349,0,0.000885,0,0
0:4:36.677,509.966,64.9279,0,0.000885,0,0
0:4:38.068,512.604,65.2658,0,0.000885,0,0
0:4:39.469,515.184,65.5967,0,0.000885,0,0
0:4:40.875,518.765,66.0518,0,0.000885,0,0
0:4:42.269,520.522,66.2724,0,0.000885,0,0
0:4:43.673,524.041,66.7206,0,0.000885,0,0
0:4:45.072,526.269,67.0101,0,0.000885,0,0
0:4:46.474,529.085,67.3687,0,0.000885,0,0
0:4:47.857,531.607,67.6858,0,0.000885,0,0
0:4:49.236,534.543,68.0581,0,0.000885,0,0
0:4:50.642,537.123,68.3891,0,0.000885,0,0
0:4:52.031,540.228,68.7821,0,0.000885,0,0
0:4:53.410,542.634,69.0924,0,0.000885,0,0
0:4:54.801,545.392,69.444,0,0.000885,0,0
0:4:56.207,548.208,69.8025,0,0.000885,0,0
0:4:57.590,550.61,70.1059,0,0.000885,0,0
0:4:58.968,553.425,70.4644,0,0.000885,0,0
0:5:0.376,556.419,70.8436,0,0.000885,0,0
0:5:1.774,559.173,71.1953,0,0.000885,0,0
0:5:3.164,561.815,71.5331,0,0.000885,0,0
0:5:4.561,564.862,71.9192,0,0.000885,0,0
0:5:5.964,566.975,72.1881,0,0.000885,0,0
0:5:7.356,570.258,72.6087,0,0.000885,0,0
0:5:8.756,573.073,72.9672,0,0.000885,0,0
0:5:10.154,575.538,73.2775,0,0.000885,0,0
0:5:11.560,578.589,73.6705,0,0.000885,0,0
0:5:12.944,580.991,73.9739,0,0.000885,0,0
0:5:14.334,583.455,74.291,0,0.000885,0,0
0:5:15.738,586.445,74.6702,0,0.000885,0,0
0:5:17.124,588.264,74.8977,0,0.000885,0,0
0:5:18.513,591.378,75.2976,0,0.000885,0,0
0:5:19.918,594.603,75.7044,0,0.000885,0,0
0:5:21.322,597.423,76.063,0,0.000885,0,0
0:5:22.710,600.123,76.4077,0,0.000885,0,0
0:5:24.096,602.765,76.7455,0,0.000885,0,0
0:5:25.508,604.584,76.98,0,0.000885,0,0
0:5:26.902,605.759,77.1248,0,0.000885,0,0
0:5:28.293,610.158,77.6901,0,0.000885,0,0
0:5:29.691,613.33,78.09,0,0.000885,0,0
0:5:31.097,586.271,74.6495,0,0.000885,0,0
0:5:31.710,515.949,65.6932,0,0.000885,0,0