File: DataFile2021-06-30_053558.csv
Test ID:,Date Tested:,Time:,Test Type:,Diameter Avg. (mm):,Cyl. Corr. Factor:,Height (mm):,Age (days):,Weight (kN):,Break Type:,Ramp Rate (MPa/s):,Load at Break (kN):,Stress at Break (MPa):
12,6/30/2021,05:35,Cylinder,150,1,300,0,3.6,3,0.25,1783.33,100.92
Sample Time,Load (kN),Stress (MPa),Long. Strain,Trans. Strain,Chan1 Deflection (mm),Chan2 Deflection (mm)
0:0:16.823,5.57362,0.317159,0,0.000885,0,0
0:0:18.513,12.9043,0.730844,0,0.000885,0,0
0:0:20.203,19.3542,1.09627,0,0.000885,0,0
0:0:21.894,28.9134,1.63406,0,0.000885,0,0
0:0:23.612,35.8927,2.03395,0,0.000885,0,0
0:0:25.307,42.8141,2.42006,0,0.000885,0,0
0:0:26.999,50.2649,2.84753,0,0.000885,0,0
0:0:28.720,57.8313,3.27501,0,0.000885,0,0
0:0:30.411,65.4556,3.70248,0,0.000885,0,0
0:0:32.105,73.1955,4.14375,0,0.000885,0,0
0:0:33.823,81.1133,4.59191,0,0.000885,0,0
0:0:35.513,88.6797,5.01938,0,0.000885,0,0
0:0:37.207,95.8369,5.42617,0,0.000885,0,0
0:0:38.925,103.813,5.87433,0,0.000885,0,0
0:0:40.618,110.734,6.26733,0,0.000885,0,0
0:0:42.312,118.71,6.71549,0,0.000885,0,0
0:0:44.030,125.511,7.1016,0,0.000885,0,0
0:0:45.720,133.843,7.57044,0,0.000885,0,0
0:0:47.423,140.586,7.95655,0,0.000885,0,0
0:0:49.132,148.446,8.39781,0,0.000885,0,0
0:0:50.821,155.363,8.79082,0,0.000885,0,0
0:0:52.521,163.281,9.23897,0,0.000885,0,0
0:0:54.231,171.141,9.68713,0,0.000885,0,0
0:0:55.923,178.182,10.0801,0,0.000885,0,0
0:0:57.622,185.98,10.5214,0,0.000885,0,0
0:0:59.330,192.786,10.9075,0,0.000885,0,0
0:1:1.013,201.171,11.3832,0,0.000885,0,0
0:1:2.708,208.444,11.7969,0,0.000885,0,0
0:1:4.395,215.717,12.2037,0,0.000885,0,0
0:1:6.076,223.105,12.6243,0,0.000885,0,0
0:1:7.781,230.849,13.0656,0,0.000885,0,0
0:1:9.480,238.238,13.4793,0,0.000885,0,0
0:1:11.172,245.626,13.8998,0,0.000885,0,0
0:1:12.874,252.726,14.2997,0,0.000885,0,0
0:1:14.574,260.817,14.7617,0,0.000885,0,0
0:1:16.263,267.738,15.1478,0,0.000885,0,0
0:1:17.974,275.363,15.5822,0,0.000885,0,0
0:1:19.657,283.165,16.0234,0,0.000885,0,0
0:1:21.336,290.553,16.444,0,0.000885,0,0
0:1:23.038,298.413,16.8853,0,0.000885,0,0
0:1:24.724,305.277,17.2783,0,0.000885,0,0
0:1:26.403,312.843,17.7057,0,0.000885,0,0
0:1:28.102,320.29,18.1263,0,0.000885,0,0
0:1:29.791,328.034,18.5607,0,0.000885,0,0
0:1:31.478,335.538,18.9882,0,0.000885,0,0
0:1:33.183,342.695,19.395,0,0.000885,0,0
0:1:34.876,350.493,19.8362,0,0.000885,0,0
0:1:36.574,358.705,20.2982,0,0.000885,0,0
0:1:38.288,365.453,20.6774,0,0.000885,0,0
0:1:39.981,372.957,21.1049,0,0.000885,0,0
0:1:41.680,380.056,21.5047,0,0.000885,0,0
0:1:43.380,388.499,21.9874,0,0.000885,0,0
0:1:45.083,395.95,22.408,0,0.000885,0,0
0:1:46.785,403.165,22.8148,0,0.000885,0,0
0:1:48.485,410.669,23.2422,0,0.000885,0,0
0:1:50.176,418.004,23.6559,0,0.000885,0,0
0:1:51.880,425.392,24.0696,0,0.000885,0,0
0:1:53.580,433.252,24.5178,0,0.000885,0,0
0:1:55.282,440.583,24.9314,0,0.000885,0,0
0:1:56.982,447.678,25.3313,0,0.000885,0,0
0:1:58.685,455.774,25.7933,0,0.000885,0,0
0:2:0.378,463.282,26.2139,0,0.000885,0,0
0:2:2.080,470.493,26.6276,0,0.000885,0,0
0:2:3.780,478.179,27.0619,0,0.000885,0,0
0:2:5.484,485.568,27.4756,0,0.000885,0,0
0:2:7.187,493.192,27.91,0,0.000885,0,0
0:2:8.888,500.171,28.303,0,0.000885,0,0
0:2:10.580,508.089,28.7511,0,0.000885,0,0
0:2:12.285,516.301,29.22,0,0.000885,0,0
0:2:13.986,523.164,29.6061,0,0.000885,0,0
0:2:15.676,530.962,30.0474,0,0.000885,0,0
0:2:17.380,538.355,30.4679,0,0.000885,0,0
0:2:19.079,545.334,30.8609,0,0.000885,0,0
0:2:20.782,553.603,31.3298,0,0.000885,0,0
0:2:22.488,561.17,31.7573,0,0.000885,0,0
0:2:24.187,568.087,32.1503,0,0.000885,0,0
0:2:25.889,575.48,32.5639,0,0.000885,0,0
0:2:27.591,583.34,33.0121,0,0.000885,0,0
0:2:29.282,590.141,33.3982,0,0.000885,0,0
0:2:30.989,598.241,33.8533,0,0.000885,0,0
0:2:32.689,606.284,34.3083,0,0.000885,0,0
0:2:34.390,613.152,34.6944,0,0.000885,0,0
0:2:36.086,620.607,35.1219,0,0.000885,0,0
0:2:37.786,628.649,35.5769,0,0.000885,0,0
0:2:39.487,635.397,35.9562,0,0.000885,0,0
0:2:41.181,642.443,36.3561,0,0.000885,0,0
0:2:42.900,651.482,36.8663,0,0.000885,0,0
0:2:44.595,658.586,37.2662,0,0.000885,0,0
0:2:46.289,665.863,37.6798,0,0.000885,0,0
0:2:47.995,673.848,38.1349,0,0.000885,0,0
0:2:49.693,680.831,38.5279,0,0.000885,0,0
0:2:51.389,688.344,38.9554,0,0.000885,0,0
0:2:53.096,695.333,39.3484,0,0.000885,0,0
0:2:54.792,703.491,39.8103,0,0.000885,0,0
0:2:56.488,710.532,40.2102,0,0.000885,0,0
0:2:58.195,718.753,40.6722,0,0.000885,0,0
0:2:59.892,726.266,41.0996,0,0.000885,0,0
0:3:1.586,733.249,41.4926,0,0.000885,0,0
0:3:3.301,740.82,41.9201,0,0.000885,0,0
0:3:4.990,747.924,42.3269,0,0.000885,0,0
0:3:6.686,755.851,42.7751,0,0.000885,0,0
0:3:8.401,763.831,43.2232,0,0.000885,0,0
0:3:10.087,770.992,43.63,0,0.000885,0,0
0:3:11.793,778.568,44.0575,0,0.000885,0,0
0:3:13.508,785.436,44.4436,0,0.000885,0,0
0:3:15.195,793.594,44.9056,0,0.000885,0,0
0:3:16.893,800.871,45.3192,0,0.000885,0,0
0:3:18.609,808.091,45.726,0,0.000885,0,0
0:3:20.294,816.311,46.1949,0,0.000885,0,0
0:3:21.989,823.295,46.5879,0,0.000885,0,0
0:3:23.704,831.453,47.0498,0,0.000885,0,0
0:3:25.391,837.969,47.4221,0,0.000885,0,0
0:3:27.083,846.247,47.891,0,0.000885,0,0
0:3:28.791,853.583,48.3047,0,0.000885,0,0
0:3:30.487,861.096,48.7252,0,0.000885,0,0
0:3:32.199,867.67,49.0976,0,0.000885,0,0
0:3:33.905,876.829,49.6216,0,0.000885,0,0
0:3:35.595,883.403,49.987,0,0.000885,0,0
0:3:37.295,891.032,50.4214,0,0.000885,0,0
0:3:39.001,898.665,50.8557,0,0.000885,0,0
0:3:40.690,905.827,51.2625,0,0.000885,0,0
0:3:42.390,913.869,51.7176,0,0.000885,0,0
0:3:44.095,920.675,52.0968,0,0.000885,0,0
0:3:45.795,929.131,52.5794,0,0.000885,0,0
0:3:47.496,936.524,52.9931,0,0.000885,0,0
0:3:49.192,944.215,53.4344,0,0.000885,0,0
0:3:50.891,950.905,53.8136,0,0.000885,0,0
0:3:52.602,958.774,54.2548,0,0.000885,0,0
0:3:54.300,965.873,54.6547,0,0.000885,0,0
0:3:55.996,973.271,55.0753,0,0.000885,0,0
0:3:57.696,981.198,55.5235,0,0.000885,0,0
0:3:59.398,989.12,55.9716,0,0.000885,0,0
0:4:1.093,995.988,56.3646,0,0.000885,0,0
0:4:2.802,1003.79,56.8059,0,0.000885,0,0
0:4:4.495,1011.37,57.2334,0,0.000885,0,0
0:4:6.187,1019.11,57.6677,0,0.000885,0,0
0:4:7.909,1025.98,58.0608,0,0.000885,0,0
0:4:9.604,1034.32,58.5296,0,0.000885,0,0
0:4:11.288,1040.6,58.8881,0,0.000885,0,0
0:4:12.995,1048.88,59.357,0,0.000885,0,0
0:4:14.694,1056.74,59.7982,0,0.000885,0,0
0:4:16.386,1063.67,60.1912,0,0.000885,0,0
0:4:18.101,1071.07,60.6118,0,0.000885,0,0
0:4:19.798,1079.28,61.0738,0,0.000885,0,0
0:4:21.483,1086.21,61.4668,0,0.000885,0,0
0:4:23.196,1092.9,61.846,0,0.000885,0,0
0:4:24.894,1101.59,62.3355,0,0.000885,0,0
0:4:26.593,1109.28,62.7699,0,0.000885,0,0
0:4:28.302,1116.26,63.1698,0,0.000885,0,0
0:4:29.994,1124.01,63.6041,0,0.000885,0,0
0:4:31.688,1131.23,64.0178,0,0.000885,0,0
0:4:33.408,1139.04,64.4591,0,0.000885,0,0
0:4:35.100,1146.14,64.859,0,0.000885,0,0
0:4:36.796,1153.95,65.3002,0,0.000885,0,0
0:4:38.506,1161.87,65.7484,0,0.000885,0,0
0:4:40.195,1169.15,66.1621,0,0.000885,0,0
0:4:41.890,1176.9,66.5965,0,0.000885,0,0
0:4:43.602,1183.82,66.9895,0,0.000885,0,0
0:4:45.295,1191.57,67.4307,0,0.000885,0,0
0:4:46.998,1198.91,67.8444,0,0.000885,0,0
0:4:48.710,1206.78,68.2926,0,0.000885,0,0
0:4:50.400,1214.41,68.72,0,0.000885,0,0
0:4:52.101,1221.69,69.1337,0,0.000885,0,0
0:4:53.810,1229.02,69.5474,0,0.000885,0,0
0:4:55.498,1236.77,69.9887,0,0.000885,0,0
0:4:57.198,1244.28,70.4093,0,0.000885,0,0
0:4:58.904,1250.98,70.7885,0,0.000885,0,0
0:5:0.597,1258.78,71.2297,0,0.000885,0,0
0:5:2.282,1266.18,71.6503,0,0.000885,0,0
0:5:3.991,1274.46,72.1192,0,0.000885,0,0
0:5:5.691,1281.44,72.5122,0,0.000885,0,0
0:5:7.390,1289.31,72.9603,0,0.000885,0,0
0:5:9.098,1296.88,73.3878,0,0.000885,0,0
0:5:10.799,1304.22,73.8015,0,0.000885,0,0
0:5:12.509,1312.2,74.2565,0,0.000885,0,0
0:5:14.207,1319.19,74.6495,0,0.000885,0,0
0:5:15.892,1326.58,75.0701,0,0.000885,0,0
0:5:17.614,1334.45,75.5114,0,0.000885,0,0
0:5:19.315,1341.55,75.9182,0,0.000885,0,0
0:5:21.002,1349,76.3388,0,0.000885,0,0
0:5:22.711,1356.81,76.78,0,0.000885,0,0
0:5:24.412,1364.27,77.2006,0,0.000885,0,0
0:5:26.100,1371.66,77.6212,0,0.000885,0,0
0:5:27.810,1379.12,78.0418,0,0.000885,0,0
0:5:29.512,1387.1,78.4968,0,0.000885,0,0
0:5:31.199,1394.14,78.8898,0,0.000885,0,0
0:5:32.907,1402.07,79.338,0,0.000885,0,0
0:5:34.600,1408.76,79.7172,0,0.000885,0,0
0:5:36.296,1416.68,80.1653,0,0.000885,0,0
0:5:38.006,1424.55,80.6135,0,0.000885,0,0
0:5:39.697,1431.48,81.0065,0,0.000885,0,0
0:5:41.394,1439.93,81.4822,0,0.000885,0,0
0:5:43.104,1446.91,81.8752,0,0.000885,0,0
0:5:44.807,1454.19,82.2889,0,0.000885,0,0
0:5:46.504,1461.47,82.7026,0,0.000885,0,0
0:5:48.214,1469.1,83.137,0,0.000885,0,0
0:5:49.904,1476.26,83.5369,0,0.000885,0,0
0:5:51.594,1484.67,84.0126,0,0.000885,0,0
0:5:53.312,1492.27,84.447,0,0.000885,0,0
0:5:54.999,1499.75,84.8676,0,0.000885,0,0
0:5:56.702,1506.93,85.2744,0,0.000885,0,0
0:5:58.408,1514.53,85.7018,0,0.000885,0,0
0:6:0.096,1522.01,86.1293,0,0.000885,0,0
0:6:1.807,1529.07,86.5292,0,0.000885,0,0
0:6:3.518,1537.02,86.9774,0,0.000885,0,0
0:6:5.206,1545.15,87.4393,0,0.000885,0,0
0:6:6.900,1551.62,87.8047,0,0.000885,0,0
0:6:8.618,1559.57,88.2529,0,0.000885,0,0
0:6:10.304,1566.7,88.6597,0,0.000885,0,0
0:6:11.996,1574.53,89.1009,0,0.000885,0,0
0:6:13.713,1582.25,89.5353,0,0.000885,0,0
0:6:15.400,1589.49,89.949,0,0.000885,0,0
0:6:17.094,1597.67,90.411,0,0.000885,0,0
0:6:18.799,1604.15,90.7764,0,0.000885,0,0
0:6:20.510,1611.68,91.2038,0,0.000885,0,0
0:6:22.208,1620.46,91.7003,0,0.000885,0,0
0:6:23.915,1626.99,92.0657,0,0.000885,0,0
0:6:25.614,1634.53,92.4932,0,0.000885,0,0
0:6:27.298,1641.83,92.9069,0,0.000885,0,0
0:6:29.006,1648.43,93.2792,0,0.000885,0,0
0:6:30.707,1657.02,93.7687,0,0.000885,0,0
0:6:32.392,1664.62,94.1962,0,0.000885,0,0
0:6:34.100,1671.45,94.5823,0,0.000885,0,0
0:6:35.797,1678.93,95.0098,0,0.000885,0,0
0:6:37.496,1687.35,95.4855,0,0.000885,0,0
0:6:39.196,1695.3,95.9337,0,0.000885,0,0
0:6:40.892,1702.42,96.3404,0,0.000885,0,0
0:6:42.602,1709.9,96.761,0,0.000885,0,0
0:6:44.301,1718.26,97.2368,0,0.000885,0,0
0:6:46.007,1724.8,97.6022,0,0.000885,0,0
0:6:47.703,1732.52,98.0434,0,0.000885,0,0
0:6:49.407,1739.05,98.4089,0,0.000885,0,0
0:6:51.111,1747.53,98.8915,0,0.000885,0,0
0:6:52.819,1754.95,99.3121,0,0.000885,0,0
0:6:54.512,1760.78,99.643,0,0.000885,0,0
0:6:56.195,1770.97,100.215,0,0.000885,0,0
0:6:57.905,1777.74,100.601,0,0.000885,0,0
0:6:59.604,1728.74,97.8297,0,0.000885,0,0
0:7:1.293,1259.78,71.2918,0,0.000885,0,0
0:7:1.582,1250.86,70.7816,0,0.000885,0,0