File: DataFile2021-06-09_073949.csv
Test ID:,Date Tested:,Time:,Test Type:,Diameter Avg. (mm):,Cyl. Corr. Factor:,Height (mm):,Age (days):,Weight (kN):,Break Type:,Ramp Rate (MPa/s):,Load at Break (kN):,Stress at Break (MPa):
12,6/9/2021,07:39,Cylinder,100,1,200,0,3.6,3,0.25,535.54,68.19
Sample Time,Load (kN),Stress (MPa),Long. Strain,Trans. Strain,Chan1 Deflection (mm),Chan2 Deflection (mm)
0:0:13.831,5.10211,0.648107,0,0.000885,0,0
0:0:15.023,11.4364,1.45479,0,0.000885,0,0
0:0:16.209,10.262,1.31,0,0.000885,0,0
0:0:17.401,11.4942,1.46169,0,0.000885,0,0
0:0:18.604,13.6071,1.73058,0,0.000885,0,0
0:0:19.811,16.6586,2.12359,0,0.000885,0,0
0:0:21.017,19.2386,2.44764,0,0.000885,0,0
0:0:22.214,22.1121,2.81306,0,0.000885,0,0
0:0:23.404,24.1049,3.06817,0,0.000885,0,0
0:0:24.609,26.3335,3.35085,0,0.000885,0,0
0:0:25.822,29.207,3.71627,0,0.000885,0,0
0:0:27.014,31.142,3.96449,0,0.000885,0,0
0:0:28.210,33.7842,4.30233,0,0.000885,0,0
0:0:29.406,35.8927,4.57122,0,0.000885,0,0
0:0:30.618,38.2414,4.8677,0,0.000885,0,0
0:0:31.816,40.5277,5.15728,0,0.000885,0,0
0:0:33.010,42.872,5.46065,0,0.000885,0,0
0:0:34.208,45.1005,5.74333,0,0.000885,0,0
0:0:35.421,47.7428,6.08118,0,0.000885,0,0
0:0:36.616,49.4998,6.30181,0,0.000885,0,0
0:0:37.808,52.3155,6.66034,0,0.000885,0,0
0:0:39.005,54.8377,6.98439,0,0.000885,0,0
0:0:40.220,56.7727,7.22571,0,0.000885,0,0
0:0:41.417,59.8241,7.61871,0,0.000885,0,0
0:0:42.615,61.8169,7.87381,0,0.000885,0,0
0:0:43.808,64.0455,8.1565,0,0.000885,0,0
0:0:45.020,66.7456,8.50124,0,0.000885,0,0
0:0:46.225,68.7962,8.75634,0,0.000885,0,0
0:0:47.417,71.0826,9.05282,0,0.000885,0,0
0:0:48.613,73.3734,9.3424,0,0.000885,0,0
0:0:49.819,75.4819,9.61129,0,0.000885,0,0
0:0:51.024,78.1241,9.94913,0,0.000885,0,0
0:0:52.222,80.7041,10.2732,0,0.000885,0,0
0:0:53.417,83.1684,10.5903,0,0.000885,0,0
0:0:54.620,85.3347,10.8661,0,0.000885,0,0
0:0:55.829,87.5054,11.1419,0,0.000885,0,0
0:0:57.024,90.0276,11.466,0,0.000885,0,0
0:0:58.217,92.3139,11.7556,0,0.000885,0,0
0:0:59.413,94.6048,12.0451,0,0.000885,0,0
0:1:0.628,96.7755,12.3209,0,0.000885,0,0
0:1:1.827,99.8225,12.707,0,0.000885,0,0
0:1:3.019,101.642,12.9415,0,0.000885,0,0
0:1:4.223,104.164,13.2655,0,0.000885,0,0
0:1:5.434,106.566,13.5689,0,0.000885,0,0
0:1:6.628,109.266,13.9136,0,0.000885,0,0
0:1:7.818,110.614,14.086,0,0.000885,0,0
0:1:9.013,113.839,14.4928,0,0.000885,0,0
0:1:10.227,115.894,14.7548,0,0.000885,0,0
0:1:11.423,118.474,15.0857,0,0.000885,0,0
0:1:12.621,120.88,15.3891,0,0.000885,0,0
0:1:13.815,123.109,15.6718,0,0.000885,0,0
0:1:15.024,125.102,15.9269,0,0.000885,0,0
0:1:16.229,127.86,16.2785,0,0.000885,0,0
0:1:17.423,129.617,16.506,0,0.000885,0,0
0:1:18.614,132.432,16.8646,0,0.000885,0,0
0:1:19.820,134.488,17.1266,0,0.000885,0,0
0:1:21.029,137.361,17.492,0,0.000885,0,0
0:1:22.219,139.354,17.7402,0,0.000885,0,0
0:1:23.416,141.347,17.9953,0,0.000885,0,0
0:1:24.623,144.278,18.3676,0,0.000885,0,0
0:1:25.827,146.511,18.6572,0,0.000885,0,0
0:1:27.024,148.677,18.933,0,0.000885,0,0
0:1:28.220,150.968,19.2226,0,0.000885,0,0
0:1:29.418,153.722,19.5742,0,0.000885,0,0
0:1:30.633,156.07,19.8707,0,0.000885,0,0
0:1:31.828,158.824,20.2223,0,0.000885,0,0
0:1:33.019,160.937,20.4912,0,0.000885,0,0
0:1:34.213,162.756,20.7256,0,0.000885,0,0
0:1:35.429,165.572,21.0842,0,0.000885,0,0
0:1:36.625,167.858,21.3737,0,0.000885,0,0
0:1:37.820,170.202,21.6702,0,0.000885,0,0
0:1:39.017,172.667,21.9874,0,0.000885,0,0
0:1:40.231,175.304,22.3183,0,0.000885,0,0
0:1:41.426,177.066,22.5459,0,0.000885,0,0
0:1:42.621,178.943,22.7803,0,0.000885,0,0
0:1:43.812,182.052,23.1802,0,0.000885,0,0
0:1:45.026,183.987,23.4284,0,0.000885,0,0
0:1:46.229,186.745,23.78,0,0.000885,0,0
0:1:47.419,188.444,23.9938,0,0.000885,0,0
0:1:48.617,191.376,24.3661,0,0.000885,0,0
0:1:49.820,194.014,24.7039,0,0.000885,0,0
0:1:51.016,196.536,25.0211,0,0.000885,0,0
0:1:52.204,198.355,25.2555,0,0.000885,0,0
0:1:53.409,200.877,25.5795,0,0.000885,0,0
0:1:54.605,202.99,25.8484,0,0.000885,0,0
0:1:55.810,205.161,26.1242,0,0.000885,0,0
0:1:57.009,208.092,26.4966,0,0.000885,0,0
0:1:58.198,210.436,26.793,0,0.000885,0,0
0:1:59.394,212.843,27.1033,0,0.000885,0,0
0:2:0.596,214.484,27.3101,0,0.000885,0,0
0:2:1.777,217.536,27.6962,0,0.000885,0,0
0:2:2.962,219.471,27.9445,0,0.000885,0,0
0:2:4.150,221.642,28.2202,0,0.000885,0,0
0:2:5.356,224.164,28.5443,0,0.000885,0,0
0:2:6.544,226.392,28.827,0,0.000885,0,0
0:2:7.732,229.03,29.1579,0,0.000885,0,0
0:2:8.916,231.201,29.4406,0,0.000885,0,0
0:2:10.117,233.487,29.7302,0,0.000885,0,0
0:2:11.311,235.542,29.9922,0,0.000885,0,0
0:2:12.507,238.474,30.3645,0,0.000885,0,0
0:2:13.697,240.524,30.6265,0,0.000885,0,0
0:2:14.902,243.634,31.0195,0,0.000885,0,0
0:2:16.094,245.804,31.2953,0,0.000885,0,0
0:2:17.285,247.739,31.5435,0,0.000885,0,0
0:2:18.472,249.732,31.7986,0,0.000885,0,0
0:2:19.672,252.196,32.1089,0,0.000885,0,0
0:2:20.865,254.545,32.4123,0,0.000885,0,0
0:2:22.053,257.183,32.7432,0,0.000885,0,0
0:2:23.240,259.705,33.0673,0,0.000885,0,0
0:2:24.425,261.168,33.2534,0,0.000885,0,0
0:2:25.632,263.575,33.5568,0,0.000885,0,0
0:2:26.821,266.506,33.936,0,0.000885,0,0
0:2:28.011,268.677,34.2118,0,0.000885,0,0
0:2:29.205,270.963,34.5014,0,0.000885,0,0
0:2:30.408,273.899,34.8737,0,0.000885,0,0
0:2:31.611,275.541,35.0805,0,0.000885,0,0
0:2:32.804,277.654,35.3494,0,0.000885,0,0
0:2:34.001,280.465,35.7079,0,0.000885,0,0
0:2:35.209,283.281,36.0665,0,0.000885,0,0
0:2:36.415,284.984,36.2871,0,0.000885,0,0
0:2:37.601,287.68,36.6318,0,0.000885,0,0
0:2:38.785,289.966,36.9214,0,0.000885,0,0
0:2:39.988,291.906,37.1696,0,0.000885,0,0
0:2:41.183,294.423,37.4868,0,0.000885,0,0
0:2:42.368,296.536,37.7557,0,0.000885,0,0
0:2:43.550,298.823,38.0453,0,0.000885,0,0
0:2:44.756,301.581,38.3969,0,0.000885,0,0
0:2:45.948,303.516,38.6451,0,0.000885,0,0
0:2:47.130,306.567,39.0312,0,0.000885,0,0
0:2:48.316,308.969,39.3415,0,0.000885,0,0
0:2:49.515,311.082,39.6104,0,0.000885,0,0
0:2:50.707,313.488,39.9137,0,0.000885,0,0
0:2:51.893,315.481,40.1689,0,0.000885,0,0
0:2:53.112,317.532,40.4309,0,0.000885,0,0
0:2:54.299,320.29,40.7825,0,0.000885,0,0
0:2:55.503,323.105,41.141,0,0.000885,0,0
0:2:56.690,324.395,41.3065,0,0.000885,0,0
0:2:57.874,327.447,41.6926,0,0.000885,0,0
0:2:59.069,329.555,41.9615,0,0.000885,0,0
0:3:0.273,332.14,42.2924,0,0.000885,0,0
0:3:1.457,334.075,42.5338,0,0.000885,0,0
0:3:2.640,336.948,42.8992,0,0.000885,0,0
0:3:3.827,338.763,43.1336,0,0.000885,0,0
0:3:5.033,342.05,43.5542,0,0.000885,0,0
0:3:6.219,343.514,43.7403,0,0.000885,0,0
0:3:7.405,345.863,44.0368,0,0.000885,0,0
0:3:8.612,348.091,44.3195,0,0.000885,0,0
0:3:9.814,351.08,44.6987,0,0.000885,0,0
0:3:11.015,352.842,44.9262,0,0.000885,0,0
0:3:12.201,355.422,45.2503,0,0.000885,0,0
0:3:13.383,357.535,45.5192,0,0.000885,0,0
0:3:14.590,360.115,45.8501,0,0.000885,0,0
0:3:15.782,362.637,46.1742,0,0.000885,0,0
0:3:16.967,365.039,46.4776,0,0.000885,0,0
0:3:18.157,367.561,46.8016,0,0.000885,0,0
0:3:19.355,369.732,47.0774,0,0.000885,0,0
0:3:20.550,371.373,47.2842,0,0.000885,0,0
0:3:21.739,373.664,47.5738,0,0.000885,0,0
0:3:22.921,376.769,47.9737,0,0.000885,0,0
0:3:24.115,378.997,48.2564,0,0.000885,0,0
0:3:25.319,380.643,48.4632,0,0.000885,0,0
0:3:26.512,383.575,48.8356,0,0.000885,0,0
0:3:27.718,385.625,49.0976,0,0.000885,0,0
0:3:28.904,388.032,49.4078,0,0.000885,0,0
0:3:30.109,390.202,49.6836,0,0.000885,0,0
0:3:31.306,393.312,50.0766,0,0.000885,0,0
0:3:32.494,395.482,50.3524,0,0.000885,0,0
0:3:33.683,397.297,50.5868,0,0.000885,0,0
0:3:34.888,399.82,50.904,0,0.000885,0,0
0:3:36.078,402.342,51.228,0,0.000885,0,0
0:3:37.261,404.57,51.5107,0,0.000885,0,0
0:3:38.448,406.741,51.7865,0,0.000885,0,0
0:3:39.653,408.969,52.0692,0,0.000885,0,0
0:3:40.844,411.785,52.4277,0,0.000885,0,0
0:3:42.030,413.956,52.7035,0,0.000885,0,0
0:3:43.226,416.358,53.0138,0,0.000885,0,0
0:3:44.425,418.88,53.3309,0,0.000885,0,0
0:3:45.618,420.699,53.5654,0,0.000885,0,0
0:3:46.813,423.164,53.8756,0,0.000885,0,0
0:3:47.997,426.095,54.2548,0,0.000885,0,0
0:3:49.193,428.15,54.5168,0,0.000885,0,0
0:3:50.395,430.788,54.8478,0,0.000885,0,0
0:3:51.579,432.839,55.1098,0,0.000885,0,0
0:3:52.764,435.067,55.3925,0,0.000885,0,0
0:3:53.963,437.3,55.6752,0,0.000885,0,0
0:3:55.160,440.054,56.0268,0,0.000885,0,0
0:3:56.343,442.34,56.3233,0,0.000885,0,0
0:3:57.530,444.569,56.606,0,0.000885,0,0
0:3:58.718,446.802,56.8886,0,0.000885,0,0
0:3:59.924,448.737,57.1369,0,0.000885,0,0
0:4:1.121,451.259,57.454,0,0.000885,0,0
0:4:2.323,453.839,57.785,0,0.000885,0,0
0:4:3.524,456.592,58.1366,0,0.000885,0,0
0:4:4.730,458.532,58.3848,0,0.000885,0,0
0:4:5.921,460.991,58.6951,0,0.000885,0,0
0:4:7.122,463.047,58.9571,0,0.000885,0,0
0:4:8.321,465.217,59.2329,0,0.000885,0,0
0:4:9.525,467.913,59.5776,0,0.000885,0,0
0:4:10.724,470.377,59.8879,0,0.000885,0,0
0:4:11.921,473.015,60.2257,0,0.000885,0,0
0:4:13.125,474.776,60.4532,0,0.000885,0,0
0:4:14.325,477.414,60.7842,0,0.000885,0,0
0:4:15.521,479.701,61.0807,0,0.000885,0,0
0:4:16.727,481.991,61.3702,0,0.000885,0,0
0:4:17.928,484.394,61.6736,0,0.000885,0,0
0:4:19.127,486.564,61.9494,0,0.000885,0,0
0:4:20.328,488.677,62.2183,0,0.000885,0,0
0:4:21.521,491.315,62.5561,0,0.000885,0,0
0:4:22.728,493.601,62.8457,0,0.000885,0,0
0:4:23.926,496.711,63.2456,0,0.000885,0,0
0:4:25.120,498.294,63.4456,0,0.000885,0,0
0:4:26.326,500.229,63.6938,0,0.000885,0,0
0:4:27.521,503.396,64.0937,0,0.000885,0,0
0:4:28.730,505.625,64.3763,0,0.000885,0,0
0:4:29.935,508.267,64.7142,0,0.000885,0,0
0:4:31.130,510.14,64.9555,0,0.000885,0,0
0:4:32.322,512.604,65.2658,0,0.000885,0,0
0:4:33.529,515.184,65.5967,0,0.000885,0,0
0:4:34.733,517.003,65.8242,0,0.000885,0,0
0:4:35.930,519.41,66.1345,0,0.000885,0,0
0:4:37.127,522.226,66.493,0,0.000885,0,0
0:4:38.322,524.686,66.8033,0,0.000885,0,0
0:4:39.533,526.683,67.0584,0,0.000885,0,0
0:4:40.729,528.618,67.3066,0,0.000885,0,0
0:4:41.923,531.665,67.6927,0,0.000885,0,0
0:4:43.124,534.129,68.0099,0,0.000885,0,0
0:4:44.330,529.73,67.4445,0,0.000885,0,0
0:4:45.528,531.958,67.7341,0,0.000885,0,0
0:4:46.728,535.833,68.2236,0,0.000885,0,0
0:4:47.923,490.906,62.501,0,0.000885,0,0
0:4:49.127,478.646,60.9428,0,0.000885,0,0
0:4:50.328,477.414,60.7842,0,0.000885,0,0
0:4:51.520,413.836,52.6897,0,0.000885,0,0
0:4:52.725,392.667,49.9939,0,0.000885,0,0
0:4:53.672,376.124,47.891,0,0.000885,0,0