File: DataFile2021-06-24_061154.csv
Test ID:,Date Tested:,Time:,Test Type:,Diameter Avg. (mm):,Cyl. Corr. Factor:,Height (mm):,Age (days):,Weight (kN):,Break Type:,Ramp Rate (MPa/s):,Load at Break (kN):,Stress at Break (MPa):
12,6/24/2021,06:11,Cylinder,150,1,300,0,3.6,3,0.24,618.44,35
Sample Time,Load (kN),Stress (MPa),Long. Strain,Trans. Strain,Chan1 Deflection (mm),Chan2 Deflection (mm)
0:0:19.984,6.27644,0.358527,0,0.000885,0,0
0:0:20.675,17.655,0.99974,0,0.000885,0,0
0:0:21.373,17.1257,0.972161,0,0.000885,0,0
0:0:22.066,16.5963,0.937687,0,0.000885,0,0
0:0:22.759,17.1835,0.972161,0,0.000885,0,0
0:0:23.459,19.0028,1.07558,0,0.000885,0,0
0:0:24.163,21.8185,1.23416,0,0.000885,0,0
0:0:24.859,26.16,1.48237,0,0.000885,0,0
0:0:25.560,30.3235,1.71679,0,0.000885,0,0
0:0:26.271,34.4292,1.95122,0,0.000885,0,0
0:0:26.977,36.6,2.06843,0,0.000885,0,0
0:0:27.677,39.002,2.20632,0,0.000885,0,0
0:0:28.369,41.8756,2.3718,0,0.000885,0,0
0:0:29.069,45.1005,2.55106,0,0.000885,0,0
0:0:29.766,48.4456,2.74411,0,0.000885,0,0
0:0:30.469,52.4935,2.97164,0,0.000885,0,0
0:0:31.177,54.4284,3.08196,0,0.000885,0,0
0:0:31.880,57.7691,3.26811,0,0.000885,0,0
0:0:32.574,60.6426,3.43359,0,0.000885,0,0
0:0:33.275,63.9877,3.61975,0,0.000885,0,0
0:0:33.968,66.8612,3.78522,0,0.000885,0,0
0:0:34.666,70.4376,3.98517,0,0.000885,0,0
0:0:35.367,73.1955,4.14375,0,0.000885,0,0
0:0:36.076,76.3626,4.32301,0,0.000885,0,0
0:0:36.785,79.5298,4.50228,0,0.000885,0,0
0:0:37.482,82.5812,4.67465,0,0.000885,0,0
0:0:38.176,85.7484,4.85391,0,0.000885,0,0
0:0:38.875,88.3862,4.9987,0,0.000885,0,0
0:0:39.573,91.9047,5.19865,0,0.000885,0,0
0:0:40.267,94.8984,5.37102,0,0.000885,0,0
0:0:40.977,97.8297,5.53649,0,0.000885,0,0
0:0:41.686,100.997,5.71575,0,0.000885,0,0
0:0:42.384,104.28,5.90191,0,0.000885,0,0
0:0:43.084,107.505,6.08118,0,0.000885,0,0
0:0:43.778,110.378,6.24665,0,0.000885,0,0
0:0:44.475,113.43,6.41902,0,0.000885,0,0
0:0:45.175,116.597,6.59828,0,0.000885,0,0
0:0:45.887,119.177,6.74307,0,0.000885,0,0
0:0:46.594,123.225,6.9706,0,0.000885,0,0
0:0:47.291,126.04,7.12918,0,0.000885,0,0
0:0:47.985,128.736,7.28776,0,0.000885,0,0
0:0:48.684,131.787,7.46013,0,0.000885,0,0
0:0:49.380,134.777,7.6256,0,0.000885,0,0
0:0:50.077,138.18,7.81865,0,0.000885,0,0
0:0:50.788,141.76,8.0186,0,0.000885,0,0
0:0:51.494,144.34,8.17029,0,0.000885,0,0
0:0:52.195,147.094,8.32197,0,0.000885,0,0
0:0:52.891,150.03,8.48745,0,0.000885,0,0
0:0:53.586,153.312,8.6736,0,0.000885,0,0
0:0:54.286,157.125,8.89424,0,0.000885,0,0
0:0:54.981,159.998,9.05282,0,0.000885,0,0
0:0:55.688,162.698,9.2045,0,0.000885,0,0
0:0:56.395,165.865,9.38376,0,0.000885,0,0
0:0:57.099,169.09,9.56992,0,0.000885,0,0
0:0:57.797,173.018,9.79056,0,0.000885,0,0
0:0:58.495,175.598,9.93535,0,0.000885,0,0
0:0:59.189,178.414,10.0939,0,0.000885,0,0
0:0:59.887,180.878,10.2387,0,0.000885,0,0
0:1:0.586,184.223,10.4249,0,0.000885,0,0
0:1:1.295,187.448,10.6041,0,0.000885,0,0
0:1:2.004,191.434,10.8317,0,0.000885,0,0
0:1:2.699,194.601,11.0109,0,0.000885,0,0
0:1:3.388,197.123,11.1557,0,0.000885,0,0
0:1:4.084,199.881,11.3143,0,0.000885,0,0
0:1:4.775,202.812,11.4798,0,0.000885,0,0
0:1:5.474,205.979,11.659,0,0.000885,0,0
0:1:6.177,208.622,11.8038,0,0.000885,0,0
0:1:6.874,212.607,12.0314,0,0.000885,0,0
0:1:7.565,215.187,12.1761,0,0.000885,0,0
0:1:8.261,218.941,12.3899,0,0.000885,0,0
0:1:8.957,221.757,12.5485,0,0.000885,0,0
0:1:9.660,224.573,12.707,0,0.000885,0,0
0:1:10.354,227.331,12.8656,0,0.000885,0,0
0:1:11.061,231.552,13.1,0,0.000885,0,0
0:1:11.760,234.368,13.2655,0,0.000885,0,0
0:1:12.451,237.064,13.4172,0,0.000885,0,0
0:1:13.149,240.115,13.5896,0,0.000885,0,0
0:1:13.843,242.931,13.7481,0,0.000885,0,0
0:1:14.537,245.92,13.9136,0,0.000885,0,0
0:1:15.226,248.793,14.0791,0,0.000885,0,0
0:1:15.930,252.548,14.2928,0,0.000885,0,0
0:1:16.634,255.773,14.4721,0,0.000885,0,0
0:1:17.328,258.709,14.6376,0,0.000885,0,0
0:1:18.022,261.756,14.8099,0,0.000885,0,0
0:1:18.714,264.398,14.9616,0,0.000885,0,0
0:1:19.405,267.329,15.1271,0,0.000885,0,0
0:1:20.100,270.439,15.3064,0,0.000885,0,0
0:1:20.806,274.486,15.5339,0,0.000885,0,0
0:1:21.506,277.124,15.6787,0,0.000885,0,0
0:1:22.200,280.113,15.851,0,0.000885,0,0
0:1:22.888,283.165,16.0234,0,0.000885,0,0
0:1:23.580,286.096,16.1889,0,0.000885,0,0
0:1:24.275,288.739,16.3406,0,0.000885,0,0
0:1:24.963,292.257,16.5405,0,0.000885,0,0
0:1:25.667,295.598,16.7267,0,0.000885,0,0
0:1:26.371,298.591,16.8991,0,0.000885,0,0
0:1:27.066,301.465,17.0576,0,0.000885,0,0
0:1:27.757,304.983,17.2576,0,0.000885,0,0
0:1:28.459,307.621,17.4093,0,0.000885,0,0
0:1:29.148,310.615,17.5747,0,0.000885,0,0
0:1:29.843,313.662,17.7471,0,0.000885,0,0
0:1:30.539,317.243,17.9539,0,0.000885,0,0
0:1:31.243,319.881,18.0987,0,0.000885,0,0
0:1:31.944,323.105,18.2849,0,0.000885,0,0
0:1:32.645,326.037,18.4504,0,0.000885,0,0
0:1:33.355,329.204,18.6296,0,0.000885,0,0
0:1:34.070,332.843,18.8365,0,0.000885,0,0
0:1:34.757,335.774,19.002,0,0.000885,0,0
0:1:35.463,338.59,19.1605,0,0.000885,0,0
0:1:36.165,341.285,19.3122,0,0.000885,0,0
0:1:36.857,344.337,19.4846,0,0.000885,0,0
0:1:37.551,347.74,19.6776,0,0.000885,0,0
0:1:38.244,350.849,19.8569,0,0.000885,0,0
0:1:38.942,354.19,20.0431,0,0.000885,0,0
0:1:39.646,357.121,20.2085,0,0.000885,0,0
0:1:40.341,360.524,20.4016,0,0.000885,0,0
0:1:41.044,362.93,20.5395,0,0.000885,0,0
0:1:41.745,366.391,20.7325,0,0.000885,0,0
0:1:42.464,369.852,20.9325,0,0.000885,0,0
0:1:43.157,372.725,21.0911,0,0.000885,0,0
0:1:43.849,375.95,21.2772,0,0.000885,0,0
0:1:44.556,378.472,21.4151,0,0.000885,0,0
0:1:45.264,381.346,21.5806,0,0.000885,0,0
0:1:45.969,385.216,21.8012,0,0.000885,0,0
0:1:46.670,388.499,21.9874,0,0.000885,0,0
0:1:47.364,391.083,22.1322,0,0.000885,0,0
0:1:48.065,393.957,22.2908,0,0.000885,0,0
0:1:48.766,397.24,22.4769,0,0.000885,0,0
0:1:49.469,401.523,22.7182,0,0.000885,0,0
0:1:50.156,403.867,22.8561,0,0.000885,0,0
0:1:50.857,406.683,23.0147,0,0.000885,0,0
0:1:51.560,409.499,23.1733,0,0.000885,0,0
0:1:52.266,412.43,23.3388,0,0.000885,0,0
0:1:52.970,415.304,23.5042,0,0.000885,0,0
0:1:53.664,419,23.7111,0,0.000885,0,0
0:1:54.351,422.634,23.9179,0,0.000885,0,0
0:1:55.046,425.802,24.0972,0,0.000885,0,0
0:1:55.752,428.324,24.2351,0,0.000885,0,0
0:1:56.453,430.672,24.373,0,0.000885,0,0
0:1:57.148,434.307,24.5798,0,0.000885,0,0
0:1:57.846,437.3,24.7453,0,0.000885,0,0
0:1:58.549,441.228,24.9659,0,0.000885,0,0
0:1:59.244,444.395,25.1452,0,0.000885,0,0
0:1:59.940,446.859,25.29,0,0.000885,0,0
0:2:0.644,449.906,25.4623,0,0.000885,0,0
0:2:1.345,452.549,25.6071,0,0.000885,0,0
0:2:2.038,455.716,25.7864,0,0.000885,0,0
0:2:2.735,459.528,26.007,0,0.000885,0,0
0:2:3.428,462.224,26.1587,0,0.000885,0,0
0:2:4.117,464.924,26.3104,0,0.000885,0,0
0:2:4.811,468.206,26.4966,0,0.000885,0,0
0:2:5.506,471.022,26.6551,0,0.000885,0,0
0:2:6.210,474.189,26.8344,0,0.000885,0,0
0:2:6.912,477.299,27.0068,0,0.000885,0,0
0:2:7.602,480.702,27.1998,0,0.000885,0,0
0:2:8.296,483.984,27.386,0,0.000885,0,0
0:2:8.989,487.209,27.5721,0,0.000885,0,0
0:2:9.676,489.731,27.71,0,0.000885,0,0
0:2:10.382,492.547,27.8755,0,0.000885,0,0
0:2:11.085,495.888,28.0617,0,0.000885,0,0
0:2:11.779,498.824,28.2271,0,0.000885,0,0
0:2:12.475,502.4,28.4271,0,0.000885,0,0
0:2:13.174,505.038,28.5788,0,0.000885,0,0
0:2:13.866,507.738,28.7305,0,0.000885,0,0
0:2:14.569,511.666,28.9511,0,0.000885,0,0
0:2:15.278,514.308,29.1028,0,0.000885,0,0
0:2:15.981,517.181,29.2682,0,0.000885,0,0
0:2:16.679,520.642,29.4613,0,0.000885,0,0
0:2:17.371,523.338,29.613,0,0.000885,0,0
0:2:18.075,526.683,29.806,0,0.000885,0,0
0:2:18.772,529.85,29.9853,0,0.000885,0,0
0:2:19.475,532.955,30.1577,0,0.000885,0,0
0:2:20.170,535.833,30.3231,0,0.000885,0,0
0:2:20.874,539.938,30.5576,0,0.000885,0,0
0:2:21.576,542.167,30.6817,0,0.000885,0,0
0:2:22.275,545.156,30.8471,0,0.000885,0,0
0:2:22.967,548.439,31.0333,0,0.000885,0,0
0:2:23.674,551.313,31.1988,0,0.000885,0,0
0:2:24.369,554.128,31.3574,0,0.000885,0,0
0:2:25.074,557.709,31.5573,0,0.000885,0,0
0:2:25.778,560.934,31.7435,0,0.000885,0,0
0:2:26.481,563.808,31.902,0,0.000885,0,0
0:2:27.175,566.681,32.0675,0,0.000885,0,0
0:2:27.873,569.848,32.2468,0,0.000885,0,0
0:2:28.575,573.193,32.4329,0,0.000885,0,0
0:2:29.270,575.947,32.5915,0,0.000885,0,0
0:2:29.976,579.408,32.7846,0,0.000885,0,0
0:2:30.681,582.339,32.9569,0,0.000885,0,0
0:2:31.383,584.923,33.1017,0,0.000885,0,0
0:2:32.079,587.97,33.2741,0,0.000885,0,0
0:2:32.776,591.725,33.4878,0,0.000885,0,0
0:2:33.468,594.487,33.6395,0,0.000885,0,0
0:2:34.175,597.303,33.7981,0,0.000885,0,0
0:2:34.871,600.706,33.9912,0,0.000885,0,0
0:2:35.573,603.174,34.1359,0,0.000885,0,0
0:2:36.279,605.523,34.2669,0,0.000885,0,0
0:2:36.978,609.104,34.4669,0,0.000885,0,0
0:2:37.673,611.448,34.5979,0,0.000885,0,0
0:2:38.369,614.033,34.7496,0,0.000885,0,0
0:2:39.071,616.088,34.8668,0,0.000885,0,0
0:2:39.766,617.729,34.9564,0,0.000885,0,0
0:2:40.474,618.2,34.984,0,0.000885,0,0
0:2:41.182,614.798,34.7909,0,0.000885,0,0
0:2:41.885,598.419,33.8602,0,0.000885,0,0
0:2:42.573,555.303,31.4263,0,0.000885,0,0
0:2:43.272,513.601,29.0614,0,0.000885,0,0
0:2:43.975,482.752,27.317,0,0.000885,0,0
0:2:44.671,444.924,25.1797,0,0.000885,0,0
0:2:44.932,438.003,24.7867,0,0.000885,0,0