File: DataFile2021-06-06_021242.csv
Test ID:,Date Tested:,Time:,Test Type:,Diameter Avg. (mm):,Cyl. Corr. Factor:,Height (mm):,Age (days):,Weight (kN):,Break Type:,Ramp Rate (MPa/s):,Load at Break (kN):,Stress at Break (MPa):
12,6/6/2021,02:12,Cylinder,150,1,300,0,13.39,Invalid/No Break,0.25,1252.27,70.86
Sample Time,Load (kN),Stress (MPa),Long. Strain,Trans. Strain,Chan1 Deflection (mm),Chan2 Deflection (mm)
0:0:11.729,60.0599,3.39912,0,0.000885,0,0
0:0:12.926,65.5134,3.70938,0,0.000885,0,0
0:0:14.117,71.2605,4.03343,0,0.000885,0,0
0:0:15.312,76.6562,4.3368,0,0.000885,0,0
0:0:16.508,81.1133,4.59191,0,0.000885,0,0
0:0:17.714,86.9183,4.91596,0,0.000885,0,0
0:0:18.920,92.1405,5.21244,0,0.000885,0,0
0:0:20.116,97.3004,5.50891,0,0.000885,0,0
0:0:21.308,103.986,5.88123,0,0.000885,0,0
0:0:22.511,108.15,6.12254,0,0.000885,0,0
0:0:23.723,114.19,6.46039,0,0.000885,0,0
0:0:24.913,118.238,6.68791,0,0.000885,0,0
0:0:26.111,123.634,6.99818,0,0.000885,0,0
0:0:27.309,129.15,7.30844,0,0.000885,0,0
0:0:28.522,134.545,7.61181,0,0.000885,0,0
0:0:29.718,139.821,7.91518,0,0.000885,0,0
0:0:30.914,145.688,8.24613,0,0.000885,0,0
0:0:32.111,150.087,8.49434,0,0.000885,0,0
0:0:33.325,156.422,8.85287,0,0.000885,0,0
0:0:34.521,161.408,9.13555,0,0.000885,0,0
0:0:35.713,166.097,9.39755,0,0.000885,0,0
0:0:36.910,171.964,9.7285,0,0.000885,0,0
0:0:38.126,177.302,10.0319,0,0.000885,0,0
0:0:39.323,182.168,10.3077,0,0.000885,0,0
0:0:40.520,187.857,10.6317,0,0.000885,0,0
0:0:41.715,193.311,10.942,0,0.000885,0,0
0:0:42.915,198.591,11.2385,0,0.000885,0,0
0:0:44.109,203.457,11.5142,0,0.000885,0,0
0:0:45.296,208.501,11.7969,0,0.000885,0,0
0:0:46.488,214.427,12.1348,0,0.000885,0,0
0:0:47.697,219.764,12.4381,0,0.000885,0,0
0:0:48.897,224.631,12.7139,0,0.000885,0,0
0:0:50.090,229.911,13.0104,0,0.000885,0,0
0:0:51.288,234.897,13.2931,0,0.000885,0,0
0:0:52.494,240.293,13.5965,0,0.000885,0,0
0:0:53.691,245.862,13.9136,0,0.000885,0,0
0:0:54.889,251.084,14.2101,0,0.000885,0,0
0:0:56.084,256.653,14.5204,0,0.000885,0,0
0:0:57.294,262.227,14.8375,0,0.000885,0,0
0:0:58.500,267.329,15.1271,0,0.000885,0,0
0:0:59.697,272.841,15.4374,0,0.000885,0,0
0:1:0.889,277.711,15.7132,0,0.000885,0,0
0:1:2.096,282.462,15.982,0,0.000885,0,0
0:1:3.302,287.444,16.2647,0,0.000885,0,0
0:1:4.489,293.841,16.6302,0,0.000885,0,0
0:1:5.688,298.765,16.9059,0,0.000885,0,0
0:1:6.892,304.805,17.2507,0,0.000885,0,0
0:1:8.098,309.792,17.5334,0,0.000885,0,0
0:1:9.294,315.366,17.8436,0,0.000885,0,0
0:1:10.485,319.703,18.0918,0,0.000885,0,0
0:1:11.694,325.392,18.4159,0,0.000885,0,0
0:1:12.900,330.965,18.7262,0,0.000885,0,0
0:1:14.093,335.774,19.002,0,0.000885,0,0
0:1:15.292,341.699,19.3329,0,0.000885,0,0
0:1:16.485,346.272,19.5949,0,0.000885,0,0
0:1:17.687,352.726,19.9603,0,0.000885,0,0
0:1:18.883,356.77,20.1878,0,0.000885,0,0
0:1:20.096,362.752,20.5257,0,0.000885,0,0
0:1:21.294,367.912,20.8222,0,0.000885,0,0
0:1:22.499,372.957,21.1049,0,0.000885,0,0
0:1:23.693,378.824,21.4358,0,0.000885,0,0
0:1:24.892,383.926,21.7254,0,0.000885,0,0
0:1:26.085,388.792,22.0012,0,0.000885,0,0
0:1:27.300,394.775,22.339,0,0.000885,0,0
0:1:28.504,399.41,22.601,0,0.000885,0,0
0:1:29.698,404.628,22.8975,0,0.000885,0,0
0:1:30.891,409.614,23.1802,0,0.000885,0,0
0:1:32.087,415.655,23.518,0,0.000885,0,0
0:1:33.295,421.465,23.849,0,0.000885,0,0
0:1:34.492,425.922,24.1041,0,0.000885,0,0
0:1:35.687,431.611,24.4212,0,0.000885,0,0
0:1:36.881,436.362,24.6901,0,0.000885,0,0
0:1:38.095,442.051,25.0142,0,0.000885,0,0
0:1:39.300,446.859,25.29,0,0.000885,0,0
0:1:40.494,453.016,25.6347,0,0.000885,0,0
0:1:41.695,457.709,25.9036,0,0.000885,0,0
0:1:42.900,463.22,26.2139,0,0.000885,0,0
0:1:44.094,468.794,26.531,0,0.000885,0,0
0:1:45.294,474.189,26.8344,0,0.000885,0,0
0:1:46.489,478.882,27.0964,0,0.000885,0,0
0:1:47.687,484.923,27.4411,0,0.000885,0,0
0:1:48.893,489.438,27.6962,0,0.000885,0,0
0:1:50.089,495.127,28.0203,0,0.000885,0,0
0:1:51.296,500.523,28.3237,0,0.000885,0,0
0:1:52.487,505.861,28.627,0,0.000885,0,0
0:1:53.689,510.963,28.9166,0,0.000885,0,0
0:1:54.885,517.239,29.2682,0,0.000885,0,0
0:1:56.096,521.287,29.4958,0,0.000885,0,0
0:1:57.303,526.389,29.7854,0,0.000885,0,0
0:1:58.503,532.252,30.1163,0,0.000885,0,0
0:1:59.696,537.648,30.4266,0,0.000885,0,0
0:2:0.895,543.043,30.7299,0,0.000885,0,0
0:2:2.103,548.03,31.0126,0,0.000885,0,0
0:2:3.308,554.191,31.3574,0,0.000885,0,0
0:2:4.496,558.354,31.5987,0,0.000885,0,0
0:2:5.699,564.159,31.9227,0,0.000885,0,0
0:2:6.889,569.025,32.1985,0,0.000885,0,0
0:2:8.098,574.19,32.495,0,0.000885,0,0
0:2:9.300,580.173,32.8328,0,0.000885,0,0
0:2:10.502,585.155,33.1155,0,0.000885,0,0
0:2:11.699,590.786,33.4327,0,0.000885,0,0
0:2:12.901,596.008,33.7292,0,0.000885,0,0
0:2:14.099,601.76,34.0532,0,0.000885,0,0
0:2:15.291,606.284,34.3083,0,0.000885,0,0
0:2:16.491,611.155,34.5841,0,0.000885,0,0
0:2:17.698,617.2,34.9288,0,0.000885,0,0
0:2:18.900,622.248,35.2115,0,0.000885,0,0
0:2:20.098,627.884,35.5287,0,0.000885,0,0
0:2:21.285,632.461,35.7907,0,0.000885,0,0
0:2:22.500,638.627,36.1354,0,0.000885,0,0
0:2:23.706,643.965,36.4388,0,0.000885,0,0
0:2:24.893,648.72,36.7077,0,0.000885,0,0
0:2:26.088,654.591,37.0455,0,0.000885,0,0
0:2:27.304,659.111,37.3006,0,0.000885,0,0
0:2:28.514,665.334,37.6523,0,0.000885,0,0
0:2:29.708,669.795,37.9005,0,0.000885,0,0
0:2:30.899,675.605,38.2314,0,0.000885,0,0
0:2:32.095,680.711,38.521,0,0.000885,0,0
0:2:33.308,686.232,38.8313,0,0.000885,0,0
0:2:34.499,691.338,39.1209,0,0.000885,0,0
0:2:35.698,695.915,39.3829,0,0.000885,0,0
0:2:36.902,702.312,39.7414,0,0.000885,0,0
0:2:38.112,707.187,40.0172,0,0.000885,0,0
0:2:39.305,712.939,40.3412,0,0.000885,0,0
0:2:40.498,718.103,40.6377,0,0.000885,0,0
0:2:41.687,723.388,40.9342,0,0.000885,0,0
0:2:42.893,728.374,41.2169,0,0.000885,0,0
0:2:44.094,732.604,41.4582,0,0.000885,0,0
0:2:45.292,738.414,41.7822,0,0.000885,0,0
0:2:46.492,744.285,42.1201,0,0.000885,0,0
0:2:47.700,750.21,42.451,0,0.000885,0,0
0:2:48.901,755.379,42.7475,0,0.000885,0,0
0:2:50.103,760.308,43.0233,0,0.000885,0,0
0:2:51.305,764.534,43.2646,0,0.000885,0,0
0:2:52.501,770.935,43.6231,0,0.000885,0,0
0:2:53.711,775.921,43.9058,0,0.000885,0,0
0:2:54.903,781.379,44.2161,0,0.000885,0,0
0:2:56.089,786.841,44.5263,0,0.000885,0,0
0:2:57.295,791.89,44.809,0,0.000885,0,0
0:2:58.501,797.464,45.1262,0,0.000885,0,0
0:2:59.703,803.335,45.4571,0,0.000885,0,0
0:3:0.905,807.561,45.6985,0,0.000885,0,0
0:3:2.097,813.077,46.0087,0,0.000885,0,0
0:3:3.309,818.771,46.3328,0,0.000885,0,0
0:3:4.501,823.059,46.5741,0,0.000885,0,0
0:3:5.696,828.988,46.9119,0,0.000885,0,0
0:3:6.907,834.62,47.2291,0,0.000885,0,0
0:3:8.118,840.549,47.5669,0,0.000885,0,0
0:3:9.315,845.304,47.8358,0,0.000885,0,0
0:3:10.507,850.762,48.1461,0,0.000885,0,0
0:3:11.698,854.93,48.3805,0,0.000885,0,0
0:3:12.912,861.211,48.7321,0,0.000885,0,0
0:3:14.113,865.731,48.9873,0,0.000885,0,0
0:3:15.307,871.718,49.332,0,0.000885,0,0
0:3:16.504,877.296,49.6423,0,0.000885,0,0
0:3:17.712,882.696,49.9525,0,0.000885,0,0
0:3:18.911,888.506,50.2766,0,0.000885,0,0
0:3:20.098,891.793,50.4627,0,0.000885,0,0
0:3:21.299,898.194,50.8282,0,0.000885,0,0
0:3:22.505,903.243,51.1108,0,0.000885,0,0
0:3:23.708,908.407,51.4073,0,0.000885,0,0
0:3:24.895,913.923,51.7176,0,0.000885,0,0
0:3:26.088,919.385,52.0278,0,0.000885,0,0
0:3:27.303,924.55,52.3174,0,0.000885,0,0
0:3:28.512,930.007,52.6277,0,0.000885,0,0
0:3:29.709,934.647,52.8897,0,0.000885,0,0
0:3:30.897,940.75,53.2344,0,0.000885,0,0
0:3:32.109,946.034,53.5378,0,0.000885,0,0
0:3:33.322,950.727,53.7998,0,0.000885,0,0
0:3:34.518,956.599,54.1307,0,0.000885,0,0
0:3:35.711,962.293,54.4548,0,0.000885,0,0
0:3:36.905,967.284,54.7375,0,0.000885,0,0
0:3:38.115,972.915,55.0546,0,0.000885,0,0
0:3:39.312,977.377,55.3097,0,0.000885,0,0
0:3:40.501,982.777,55.6131,0,0.000885,0,0
0:3:41.699,988.533,55.9372,0,0.000885,0,0
0:3:42.912,993.871,56.2405,0,0.000885,0,0
0:3:44.108,999.213,56.5439,0,0.000885,0,0
0:3:45.308,1003.73,56.799,0,0.000885,0,0
0:3:46.500,1009.96,57.1506,0,0.000885,0,0
0:3:47.702,1014.65,57.4195,0,0.000885,0,0
0:3:48.906,1019.82,57.7091,0,0.000885,0,0
0:3:50.109,1025.22,58.0125,0,0.000885,0,0
0:3:51.314,1029.97,58.2814,0,0.000885,0,0
0:3:52.520,1035.67,58.6054,0,0.000885,0,0
0:3:53.726,1041.48,58.9364,0,0.000885,0,0
0:3:54.915,1046.11,59.1984,0,0.000885,0,0
0:3:56.109,1051.4,59.4949,0,0.000885,0,0
0:3:57.300,1057.44,59.8396,0,0.000885,0,0
0:3:58.512,1062.02,60.1016,0,0.000885,0,0
0:3:59.707,1067.54,60.4119,0,0.000885,0,0
0:4:0.903,1073,60.7221,0,0.000885,0,0
0:4:2.096,1078.46,61.0255,0,0.000885,0,0
0:4:3.310,1083.8,61.3289,0,0.000885,0,0
0:4:4.501,1089.32,61.646,0,0.000885,0,0
0:4:5.694,1094.01,61.908,0,0.000885,0,0
0:4:6.896,1099.65,62.2252,0,0.000885,0,0
0:4:8.108,1103.88,62.4665,0,0.000885,0,0
0:4:9.300,1110.33,62.8319,0,0.000885,0,0
0:4:10.492,1115.38,63.1146,0,0.000885,0,0
0:4:11.699,1120.78,63.4249,0,0.000885,0,0
0:4:12.910,1125.65,63.7007,0,0.000885,0,0
0:4:14.110,1131.23,64.0178,0,0.000885,0,0
0:4:15.308,1137.45,64.3695,0,0.000885,0,0
0:4:16.500,1141.5,64.597,0,0.000885,0,0
0:4:17.713,1146.14,64.859,0,0.000885,0,0
0:4:18.915,1152.36,65.2106,0,0.000885,0,0
0:4:20.104,1157.7,65.514,0,0.000885,0,0
0:4:21.309,1163.22,65.8242,0,0.000885,0,0
0:4:22.501,1168.45,66.1207,0,0.000885,0,0
0:4:23.713,1174.43,66.4586,0,0.000885,0,0
0:4:24.904,1178.24,66.6723,0,0.000885,0,0
0:4:26.102,1184.65,67.0377,0,0.000885,0,0
0:4:27.303,1189.28,67.2997,0,0.000885,0,0
0:4:28.513,1193.92,67.5617,0,0.000885,0,0
0:4:29.711,1200.49,67.934,0,0.000885,0,0
0:4:30.901,1203.66,68.1133,0,0.000885,0,0
0:4:32.115,1210.65,68.5063,0,0.000885,0,0
0:4:33.326,1215.11,68.7614,0,0.000885,0,0
0:4:34.522,1223.97,69.2647,0,0.000885,0,0
0:4:35.715,1227.5,69.4647,0,0.000885,0,0
0:4:36.901,1231.78,69.706,0,0.000885,0,0
0:4:38.112,1237.06,70.0025,0,0.000885,0,0
0:4:39.311,1242.17,70.2921,0,0.000885,0,0
0:4:40.504,1242.34,70.3058,0,0.000885,0,0
0:4:41.696,1252.33,70.8643,0,0.000885,0,0
0:4:42.895,1030.8,58.3296,0,0.000885,0,0