File: DataFile2021-07-03_085419.csv
Test ID:,Date Tested:,Time:,Test Type:,Diameter Avg. (mm):,Cyl. Corr. Factor:,Height (mm):,Age (days):,Weight (kN):,Break Type:,Ramp Rate (MPa/s):,Load at Break (kN):,Stress at Break (MPa):
12,7/3/2021,08:54,Cylinder,100,1,200,0,3.6,3,0.25,491.72,62.61
Sample Time,Load (kN),Stress (MPa),Long. Strain,Trans. Strain,Chan1 Deflection (mm),Chan2 Deflection (mm)
0:0:5.643,6.15634,0.786002,0,0.000885,0,0
0:0:6.736,7.15719,0.910108,0,0.000885,0,0
0:0:7.831,9.09216,1.15832,0,0.000885,0,0
0:0:8.926,10.907,1.38585,0,0.000885,0,0
0:0:10.018,13.6071,1.73058,0,0.000885,0,0
0:0:11.112,15.72,1.99948,0,0.000885,0,0
0:0:12.225,17.8285,2.26838,0,0.000885,0,0
0:0:13.321,20.2928,2.58553,0,0.000885,0,0
0:0:14.415,22.4635,2.86132,0,0.000885,0,0
0:0:15.512,24.87,3.16469,0,0.000885,0,0
0:0:16.615,27.0363,3.44048,0,0.000885,0,0
0:0:17.725,28.74,3.66112,0,0.000885,0,0
0:0:18.820,31.0263,3.9507,0,0.000885,0,0
0:0:19.913,33.077,4.2127,0,0.000885,0,0
0:0:21.009,35.3678,4.50228,0,0.000885,0,0
0:0:22.122,37.6542,4.79186,0,0.000885,0,0
0:0:23.228,39.647,5.04696,0,0.000885,0,0
0:0:24.321,41.7599,5.31586,0,0.000885,0,0
0:0:25.414,43.7527,5.57096,0,0.000885,0,0
0:0:26.526,46.1014,5.86744,0,0.000885,0,0
0:0:27.630,48.6813,6.19839,0,0.000885,0,0
0:0:28.726,50.6741,6.45349,0,0.000885,0,0
0:0:29.821,52.7248,6.71549,0,0.000885,0,0
0:0:30.919,54.9533,6.99818,0,0.000885,0,0
0:0:32.031,57.0084,7.26018,0,0.000885,0,0
0:0:33.126,59.2948,7.54976,0,0.000885,0,0
0:0:34.222,61.1719,7.79108,0,0.000885,0,0
0:0:35.318,63.227,8.05308,0,0.000885,0,0
0:0:36.422,66.0383,8.4116,0,0.000885,0,0
0:0:37.531,67.5062,8.59776,0,0.000885,0,0
0:0:38.625,70.3219,8.95629,0,0.000885,0,0
0:0:39.717,71.6119,9.11487,0,0.000885,0,0
0:0:40.813,74.2497,9.45271,0,0.000885,0,0
0:0:41.926,76.3048,9.71471,0,0.000885,0,0
0:0:43.030,78.4755,9.9905,0,0.000885,0,0
0:0:44.125,80.8776,10.3008,0,0.000885,0,0
0:0:45.219,82.6969,10.5283,0,0.000885,0,0
0:0:46.314,85.4548,10.8799,0,0.000885,0,0
0:0:47.427,87.4476,11.135,0,0.000885,0,0
0:0:48.523,89.089,11.3419,0,0.000885,0,0
0:0:49.619,91.6111,11.6659,0,0.000885,0,0
0:0:50.714,93.8397,11.9486,0,0.000885,0,0
0:0:51.828,95.7747,12.1968,0,0.000885,0,0
0:0:52.929,97.5362,12.4175,0,0.000885,0,0
0:0:54.024,100.41,12.7829,0,0.000885,0,0
0:0:55.117,101.993,12.9828,0,0.000885,0,0
0:0:56.217,103.928,13.231,0,0.000885,0,0
0:0:57.328,106.215,13.5206,0,0.000885,0,0
0:0:58.424,108.212,13.7757,0,0.000885,0,0
0:0:59.518,110.85,14.1136,0,0.000885,0,0
0:1:0.614,113.545,14.4583,0,0.000885,0,0
0:1:1.719,114.955,14.6376,0,0.000885,0,0
0:1:2.825,117.357,14.9409,0,0.000885,0,0
0:1:3.919,119.59,15.2236,0,0.000885,0,0
0:1:5.011,121.935,15.527,0,0.000885,0,0
0:1:6.117,123.46,15.72,0,0.000885,0,0
0:1:7.227,126.57,16.113,0,0.000885,0,0
0:1:8.320,128.327,16.3406,0,0.000885,0,0
0:1:9.413,130.088,16.5612,0,0.000885,0,0
0:1:10.509,132.668,16.8922,0,0.000885,0,0
0:1:11.615,135.133,17.2024,0,0.000885,0,0
0:1:12.718,137.183,17.4644,0,0.000885,0,0
0:1:13.814,139.527,17.7678,0,0.000885,0,0
0:1:14.908,141.582,18.0298,0,0.000885,0,0
0:1:16.002,142.463,18.1401,0,0.000885,0,0
0:1:17.114,145.51,18.5262,0,0.000885,0,0
0:1:18.215,147.565,18.7882,0,0.000885,0,0
0:1:19.308,150.145,19.1192,0,0.000885,0,0
0:1:20.401,151.907,19.3398,0,0.000885,0,0
0:1:21.502,154.015,19.6087,0,0.000885,0,0
0:1:22.612,155.892,19.85,0,0.000885,0,0
0:1:23.710,158.357,20.1603,0,0.000885,0,0
0:1:24.803,160.994,20.4981,0,0.000885,0,0
0:1:25.897,162.347,20.6705,0,0.000885,0,0
0:1:27.009,164.455,20.9394,0,0.000885,0,0
0:1:28.107,167.329,21.3048,0,0.000885,0,0
0:1:29.198,169.384,21.5668,0,0.000885,0,0
0:1:30.290,171.728,21.8633,0,0.000885,0,0
0:1:31.397,173.841,22.1322,0,0.000885,0,0
0:1:32.504,176.012,22.408,0,0.000885,0,0
0:1:33.597,177.711,22.6286,0,0.000885,0,0
0:1:34.689,179.588,22.863,0,0.000885,0,0
0:1:35.792,182.168,23.194,0,0.000885,0,0
0:1:36.900,184.397,23.4766,0,0.000885,0,0
0:1:38.000,187.034,23.8145,0,0.000885,0,0
0:1:39.094,188.444,23.9938,0,0.000885,0,0
0:1:40.190,190.967,24.3178,0,0.000885,0,0
0:1:41.294,193.662,24.6557,0,0.000885,0,0
0:1:42.396,194.779,24.8004,0,0.000885,0,0
0:1:43.490,197.537,25.1521,0,0.000885,0,0
0:1:44.584,199.294,25.3727,0,0.000885,0,0
0:1:45.687,200.935,25.5864,0,0.000885,0,0
0:1:46.792,203.987,25.9726,0,0.000885,0,0
0:1:47.886,205.512,26.1656,0,0.000885,0,0
0:1:48.992,207.621,26.4345,0,0.000885,0,0
0:1:50.086,210.379,26.7861,0,0.000885,0,0
0:1:51.186,212.14,27.0137,0,0.000885,0,0
0:1:52.290,214.542,27.317,0,0.000885,0,0
0:1:53.388,216.477,27.5652,0,0.000885,0,0
0:1:54.485,218.884,27.8686,0,0.000885,0,0
0:1:55.589,221.406,28.1927,0,0.000885,0,0
0:1:56.698,222.754,28.365,0,0.000885,0,0
0:1:57.792,225.16,28.6684,0,0.000885,0,0
0:1:58.889,227.682,28.9925,0,0.000885,0,0
0:1:59.986,229.853,29.2682,0,0.000885,0,0
0:2:1.092,231.374,29.4613,0,0.000885,0,0
0:2:2.196,233.545,29.7371,0,0.000885,0,0
0:2:3.287,236.125,30.068,0,0.000885,0,0
0:2:4.389,237.771,30.2749,0,0.000885,0,0
0:2:5.485,240.76,30.6541,0,0.000885,0,0
0:2:6.591,242.228,30.8402,0,0.000885,0,0
0:2:7.694,245.217,31.2195,0,0.000885,0,0
0:2:8.789,246.801,31.4263,0,0.000885,0,0
0:2:9.892,248.62,31.6538,0,0.000885,0,0
0:2:10.996,251.671,32.0468,0,0.000885,0,0
0:2:12.098,254.189,32.364,0,0.000885,0,0
0:2:13.194,255.19,32.495,0,0.000885,0,0
0:2:14.290,257.886,32.8328,0,0.000885,0,0
0:2:15.387,260.35,33.15,0,0.000885,0,0
0:2:16.493,261.876,33.343,0,0.000885,0,0
0:2:17.590,264.046,33.6188,0,0.000885,0,0
0:2:18.694,266.155,33.8877,0,0.000885,0,0
0:2:19.789,268.677,34.2118,0,0.000885,0,0
0:2:20.886,271.026,34.5083,0,0.000885,0,0
0:2:22.002,273.192,34.7841,0,0.000885,0,0
0:2:23.096,274.251,34.9219,0,0.000885,0,0
0:2:24.192,276.186,35.1633,0,0.000885,0,0
0:2:25.287,278.881,35.508,0,0.000885,0,0
0:2:26.395,281.11,35.7907,0,0.000885,0,0
0:2:27.502,283.752,36.1285,0,0.000885,0,0
0:2:28.588,285.861,36.3974,0,0.000885,0,0
0:2:29.693,287.916,36.6594,0,0.000885,0,0
0:2:30.790,289.966,36.9214,0,0.000885,0,0
0:2:31.893,292.257,37.211,0,0.000885,0,0
0:2:32.985,294.308,37.473,0,0.000885,0,0
0:2:34.090,296.594,37.7626,0,0.000885,0,0
0:2:35.194,298.356,37.9901,0,0.000885,0,0
0:2:36.291,301.229,38.3555,0,0.000885,0,0
0:2:37.393,302.635,38.5348,0,0.000885,0,0
0:2:38.491,305.686,38.9209,0,0.000885,0,0
0:2:39.584,306.861,39.0726,0,0.000885,0,0
0:2:40.693,309.263,39.376,0,0.000885,0,0
0:2:41.791,311.491,39.6586,0,0.000885,0,0
0:2:42.897,314.191,40.0034,0,0.000885,0,0
0:2:43.992,316.304,40.2723,0,0.000885,0,0
0:2:45.090,317.946,40.4791,0,0.000885,0,0
0:2:46.198,320.232,40.7756,0,0.000885,0,0
0:2:47.302,322.403,41.0514,0,0.000885,0,0
0:2:48.392,324.689,41.341,0,0.000885,0,0
0:2:49.486,326.624,41.5892,0,0.000885,0,0
0:2:50.594,329.088,41.8994,0,0.000885,0,0
0:2:51.702,331.081,42.1545,0,0.000885,0,0
0:2:52.794,333.545,42.4717,0,0.000885,0,0
0:2:53.891,335.245,42.6854,0,0.000885,0,0
0:2:54.998,337.415,42.9612,0,0.000885,0,0
0:2:56.097,339.644,43.2439,0,0.000885,0,0
0:2:57.201,341.993,43.5404,0,0.000885,0,0
0:2:58.287,343.928,43.7886,0,0.000885,0,0
0:2:59.398,346.45,44.1127,0,0.000885,0,0
0:3:0.495,348.385,44.3609,0,0.000885,0,0
0:3:1.603,350.204,44.5884,0,0.000885,0,0
0:3:2.701,352.433,44.8711,0,0.000885,0,0
0:3:3.795,354.599,45.1469,0,0.000885,0,0
0:3:4.901,356.538,45.3951,0,0.000885,0,0
0:3:5.998,358.883,45.6916,0,0.000885,0,0
0:3:7.102,361.111,45.9811,0,0.000885,0,0
0:3:8.195,363.691,46.3052,0,0.000885,0,0
0:3:9.294,365.862,46.581,0,0.000885,0,0
0:3:10.397,367.912,46.843,0,0.000885,0,0
0:3:11.497,369.558,47.0567,0,0.000885,0,0
0:3:12.602,371.257,47.2705,0,0.000885,0,0
0:3:13.697,373.958,47.6152,0,0.000885,0,0
0:3:14.795,376.36,47.9186,0,0.000885,0,0
0:3:15.902,378.646,48.2081,0,0.000885,0,0
0:3:17.008,380.35,48.4288,0,0.000885,0,0
0:3:18.098,382.872,48.7459,0,0.000885,0,0
0:3:19.202,384.629,48.9735,0,0.000885,0,0
0:3:20.298,387.151,49.2906,0,0.000885,0,0
0:3:21.404,389.38,49.5802,0,0.000885,0,0
0:3:22.506,391.199,49.8077,0,0.000885,0,0
0:3:23.601,393.37,50.0835,0,0.000885,0,0
0:3:24.698,395.714,50.3869,0,0.000885,0,0
0:3:25.802,397.711,50.6351,0,0.000885,0,0
0:3:26.900,399.94,50.9247,0,0.000885,0,0
0:3:27.994,402.52,51.2487,0,0.000885,0,0
0:3:29.088,404.455,51.4969,0,0.000885,0,0
0:3:30.185,406.799,51.7934,0,0.000885,0,0
0:3:31.289,408.676,52.0347,0,0.000885,0,0
0:3:32.391,411.082,52.3381,0,0.000885,0,0
0:3:33.478,413.369,52.6346,0,0.000885,0,0
0:3:34.591,415.597,52.9173,0,0.000885,0,0
0:3:35.697,417.003,53.0965,0,0.000885,0,0
0:3:36.800,420.054,53.4826,0,0.000885,0,0
0:3:37.903,421.402,53.655,0,0.000885,0,0
0:3:38.999,423.809,53.9584,0,0.000885,0,0
0:3:40.097,426.389,54.2893,0,0.000885,0,0
0:3:41.202,428.208,54.5237,0,0.000885,0,0
0:3:42.308,430.259,54.7857,0,0.000885,0,0
0:3:43.397,432.607,55.0822,0,0.000885,0,0
0:3:44.501,434.249,55.2891,0,0.000885,0,0
0:3:45.597,437.007,55.6407,0,0.000885,0,0
0:3:46.703,438.884,55.882,0,0.000885,0,0
0:3:47.797,441.05,56.1578,0,0.000885,0,0
0:3:48.891,443.341,56.4474,0,0.000885,0,0
0:3:49.999,445.507,56.7232,0,0.000885,0,0
0:3:51.098,448.029,57.0472,0,0.000885,0,0
0:3:52.202,450.084,57.3092,0,0.000885,0,0
0:3:53.300,452.135,57.5712,0,0.000885,0,0
0:3:54.397,453.954,57.7988,0,0.000885,0,0
0:3:55.491,456.592,58.1366,0,0.000885,0,0
0:3:56.600,458.469,58.371,0,0.000885,0,0
0:3:57.701,460.818,58.6744,0,0.000885,0,0
0:3:58.805,462.869,58.9364,0,0.000885,0,0
0:3:59.901,465.449,59.2604,0,0.000885,0,0
0:4:1.004,467.326,59.5018,0,0.000885,0,0
0:4:2.107,469.087,59.7293,0,0.000885,0,0
0:4:3.206,471.138,59.9844,0,0.000885,0,0
0:4:4.300,471.258,60.0051,0,0.000885,0,0
0:4:5.405,474.367,60.3981,0,0.000885,0,0
0:4:6.504,477.824,60.8393,0,0.000885,0,0
0:4:7.599,479.994,61.1151,0,0.000885,0,0
0:4:8.703,482.401,61.4185,0,0.000885,0,0
0:4:9.799,484.042,61.6322,0,0.000885,0,0
0:4:10.905,483.281,61.5357,0,0.000885,0,0
0:4:12.008,485.568,61.8253,0,0.000885,0,0
0:4:13.100,488.032,62.1356,0,0.000885,0,0
0:4:14.203,484.981,61.7494,0,0.000885,0,0
0:4:15.305,487.796,62.108,0,0.000885,0,0
0:4:16.407,491.137,62.5354,0,0.000885,0,0
0:4:17.507,480.23,61.1427,0,0.000885,0,0
0:4:18.601,473.66,60.3084,0,0.000885,0,0
0:4:19.331,445.627,56.737,0,0.000885,0,0