File: DataFile2021-07-15_062729.csv
Test ID:,Date Tested:,Time:,Test Type:,Diameter Avg. (mm):,Cyl. Corr. Factor:,Height (mm):,Age (days):,Weight (kN):,Break Type:,Ramp Rate (MPa/s):,Load at Break (kN):,Stress at Break (MPa):
12,7/15/2021,06:27,Cylinder,150,1,300,0,3.6,3,0.25,1581.42,89.49
Sample Time,Load (kN),Stress (MPa),Long. Strain,Trans. Strain,Chan1 Deflection (mm),Chan2 Deflection (mm)
0:0:8.592,5.15994,0.28958,0,0.000885,0,0
0:0:10.181,11.3786,0.641212,0,0.000885,0,0
0:0:11.772,19.0606,1.07558,0,0.000885,0,0
0:0:13.364,24.9857,1.41343,0,0.000885,0,0
0:0:14.977,33.1393,1.87537,0,0.000885,0,0
0:0:16.579,41.9334,2.3718,0,0.000885,0,0
0:0:18.173,48.4456,2.74411,0,0.000885,0,0
0:0:19.777,54.1349,3.06127,0,0.000885,0,0
0:0:21.384,62.0527,3.50943,0,0.000885,0,0
0:0:22.976,69.5613,3.93691,0,0.000885,0,0
0:0:24.586,75.6598,4.28164,0,0.000885,0,0
0:0:26.188,82.8748,4.68843,0,0.000885,0,0
0:0:27.781,90.7927,5.13659,0,0.000885,0,0
0:0:29.387,96.8912,5.48133,0,0.000885,0,0
0:0:30.996,104.044,5.88812,0,0.000885,0,0
0:0:32.590,111.317,6.30181,0,0.000885,0,0
0:0:34.182,118.007,6.68102,0,0.000885,0,0
0:0:35.800,125.275,7.08781,0,0.000885,0,0
0:0:37.393,132.081,7.47392,0,0.000885,0,0
0:0:38.994,139.527,7.8945,0,0.000885,0,0
0:0:40.606,146.862,8.30818,0,0.000885,0,0
0:0:42.199,153.428,8.6805,0,0.000885,0,0
0:0:43.793,160.527,9.08729,0,0.000885,0,0
0:0:45.413,167.742,9.49408,0,0.000885,0,0
0:0:47.008,174.953,9.90087,0,0.000885,0,0
0:0:48.601,181.874,10.2939,0,0.000885,0,0
0:0:50.212,189.383,10.7145,0,0.000885,0,0
0:0:51.805,196.011,11.0937,0,0.000885,0,0
0:0:53.386,202.519,11.4591,0,0.000885,0,0
0:0:54.986,210.085,11.8866,0,0.000885,0,0
0:0:56.578,217.242,12.2934,0,0.000885,0,0
0:0:58.160,224.101,12.6795,0,0.000885,0,0
0:0:59.762,231.494,13.1,0,0.000885,0,0
0:1:1.351,238.064,13.4724,0,0.000885,0,0
0:1:2.940,245.395,13.886,0,0.000885,0,0
0:1:4.554,252.668,14.2997,0,0.000885,0,0
0:1:6.148,258.94,14.6514,0,0.000885,0,0
0:1:7.735,266.391,15.0719,0,0.000885,0,0
0:1:9.331,273.37,15.4718,0,0.000885,0,0
0:1:10.940,280.407,15.8648,0,0.000885,0,0
0:1:12.534,288.209,16.3061,0,0.000885,0,0
0:1:14.129,294.134,16.6439,0,0.000885,0,0
0:1:15.736,301.932,17.0852,0,0.000885,0,0
0:1:17.336,308.738,17.4713,0,0.000885,0,0
0:1:18.939,315.948,17.8781,0,0.000885,0,0
0:1:20.540,322.754,18.2642,0,0.000885,0,0
0:1:22.142,330.614,18.7055,0,0.000885,0,0
0:1:23.748,337.767,19.1123,0,0.000885,0,0
0:1:25.357,343.807,19.457,0,0.000885,0,0
0:1:26.950,351.374,19.8845,0,0.000885,0,0
0:1:28.552,358.353,20.2775,0,0.000885,0,0
0:1:30.153,364.865,20.6498,0,0.000885,0,0
0:1:31.747,373.192,21.1186,0,0.000885,0,0
0:1:33.336,379.585,21.4772,0,0.000885,0,0
0:1:34.949,386.448,21.8702,0,0.000885,0,0
0:1:36.539,393.605,22.2701,0,0.000885,0,0
0:1:38.131,401.23,22.7044,0,0.000885,0,0
0:1:39.722,407.737,23.0699,0,0.000885,0,0
0:1:41.328,415.713,23.5249,0,0.000885,0,0
0:1:42.918,421.402,23.849,0,0.000885,0,0
0:1:44.517,428.502,24.2489,0,0.000885,0,0
0:1:46.108,435.948,24.6694,0,0.000885,0,0
0:1:47.692,443.399,25.09,0,0.000885,0,0
0:1:49.282,450.027,25.4692,0,0.000885,0,0
0:1:50.877,456.77,25.8484,0,0.000885,0,0
0:1:52.459,464.101,26.2621,0,0.000885,0,0
0:1:54.050,471.2,26.662,0,0.000885,0,0
0:1:55.655,477.886,27.0412,0,0.000885,0,0
0:1:57.244,485.39,27.4687,0,0.000885,0,0
0:1:58.837,492.547,27.8755,0,0.000885,0,0
0:2:0.440,499.055,28.2409,0,0.000885,0,0
0:2:2.052,506.684,28.6753,0,0.000885,0,0
0:2:3.656,513.249,29.0407,0,0.000885,0,0
0:2:5.263,520.113,29.4337,0,0.000885,0,0
0:2:6.852,527.034,29.8267,0,0.000885,0,0
0:2:8.434,534.716,30.2611,0,0.000885,0,0
0:2:10.055,541.58,30.6472,0,0.000885,0,0
0:2:11.651,549.146,31.0747,0,0.000885,0,0
0:2:13.249,555.303,31.4263,0,0.000885,0,0
0:2:14.862,562.633,31.84,0,0.000885,0,0
0:2:16.456,570.2,32.2675,0,0.000885,0,0
0:2:18.056,576.418,32.6191,0,0.000885,0,0
0:2:19.665,584.1,33.0535,0,0.000885,0,0
0:2:21.259,591.787,33.4878,0,0.000885,0,0
0:2:22.845,598.241,33.8533,0,0.000885,0,0
0:2:24.466,605.287,34.2532,0,0.000885,0,0
0:2:26.071,612.213,34.6462,0,0.000885,0,0
0:2:27.657,619.433,35.0529,0,0.000885,0,0
0:2:29.247,626.652,35.4597,0,0.000885,0,0
0:2:30.857,633.462,35.8458,0,0.000885,0,0
0:2:32.444,640.215,36.2319,0,0.000885,0,0
0:2:34.055,647.959,36.6663,0,0.000885,0,0
0:2:35.659,654.711,37.0524,0,0.000885,0,0
0:2:37.259,661.873,37.4523,0,0.000885,0,0
0:2:38.857,669.271,37.8729,0,0.000885,0,0
0:2:40.472,676.139,38.259,0,0.000885,0,0
0:2:42.060,682.593,38.6244,0,0.000885,0,0
0:2:43.657,689.933,39.045,0,0.000885,0,0
0:2:45.268,697.21,39.4518,0,0.000885,0,0
0:2:46.860,704.665,39.8793,0,0.000885,0,0
0:2:48.447,711.413,40.2585,0,0.000885,0,0
0:2:50.064,718.988,40.686,0,0.000885,0,0
0:2:51.663,725.856,41.0721,0,0.000885,0,0
0:2:53.263,732.431,41.4444,0,0.000885,0,0
0:2:54.870,739.766,41.865,0,0.000885,0,0
0:2:56.466,746.754,42.258,0,0.000885,0,0
0:2:58.052,754.383,42.6923,0,0.000885,0,0
0:2:59.667,761.073,43.0647,0,0.000885,0,0
0:3:1.264,768.297,43.4783,0,0.000885,0,0
0:3:2.863,774.929,43.8507,0,0.000885,0,0
0:3:4.463,781.619,44.2299,0,0.000885,0,0
0:3:6.069,789.31,44.6642,0,0.000885,0,0
0:3:7.660,796.352,45.0641,0,0.000885,0,0
0:3:9.269,803.513,45.4709,0,0.000885,0,0
0:3:10.871,810.439,45.8639,0,0.000885,0,0
0:3:12.455,817.014,46.2362,0,0.000885,0,0
0:3:14.071,824.295,46.643,0,0.000885,0,0
0:3:15.677,831.453,47.0498,0,0.000885,0,0
0:3:17.269,838.792,47.4635,0,0.000885,0,0
0:3:18.859,845.896,47.8703,0,0.000885,0,0
0:3:20.474,853.058,48.2702,0,0.000885,0,0
0:3:22.065,859.103,48.6149,0,0.000885,0,0
0:3:23.663,867.025,49.0631,0,0.000885,0,0
0:3:25.274,874.129,49.463,0,0.000885,0,0
0:3:26.862,880.646,49.8353,0,0.000885,0,0
0:3:28.467,888.51,50.2766,0,0.000885,0,0
0:3:30.081,895.787,50.6903,0,0.000885,0,0
0:3:31.669,902.01,51.0419,0,0.000885,0,0
0:3:33.260,908.585,51.4142,0,0.000885,0,0
0:3:34.875,916.04,51.8348,0,0.000885,0,0
0:3:36.472,923.38,52.2554,0,0.000885,0,0
0:3:38.060,930.657,52.6622,0,0.000885,0,0
0:3:39.658,937.467,53.0483,0,0.000885,0,0
0:3:41.257,944.922,53.4688,0,0.000885,0,0
0:3:42.854,951.848,53.8618,0,0.000885,0,0
0:3:44.470,958.423,54.2342,0,0.000885,0,0
0:3:46.068,966.051,54.6685,0,0.000885,0,0
0:3:47.665,972.626,55.0408,0,0.000885,0,0
0:3:49.263,979.73,55.4407,0,0.000885,0,0
0:3:50.868,986.656,55.8337,0,0.000885,0,0
0:3:52.464,994.226,56.2612,0,0.000885,0,0
0:3:54.053,1000.98,56.6404,0,0.000885,0,0
0:3:55.663,1008.08,57.0472,0,0.000885,0,0
0:3:57.247,1014.48,57.4057,0,0.000885,0,0
0:3:58.856,1022.05,57.8332,0,0.000885,0,0
0:4:0.473,1029.63,58.2676,0,0.000885,0,0
0:4:2.063,1036.37,58.6468,0,0.000885,0,0
0:4:3.648,1043.13,59.026,0,0.000885,0,0
0:4:5.260,1051.17,59.4811,0,0.000885,0,0
0:4:6.867,1057.33,59.8327,0,0.000885,0,0
0:4:8.454,1064.14,60.2188,0,0.000885,0,0
0:4:10.069,1072.12,60.667,0,0.000885,0,0
0:4:11.656,1078.64,61.0393,0,0.000885,0,0
0:4:13.254,1085.86,61.4461,0,0.000885,0,0
0:4:14.860,1093.66,61.8873,0,0.000885,0,0
0:4:16.460,1100.01,62.2459,0,0.000885,0,0
0:4:18.069,1106.81,62.632,0,0.000885,0,0
0:4:19.676,1114.8,63.087,0,0.000885,0,0
0:4:21.273,1122.07,63.4938,0,0.000885,0,0
0:4:22.858,1129.47,63.9144,0,0.000885,0,0
0:4:24.479,1135.93,64.2798,0,0.000885,0,0
0:4:26.082,1142.21,64.6383,0,0.000885,0,0
0:4:27.672,1149.55,65.052,0,0.000885,0,0
0:4:29.273,1156.3,65.4312,0,0.000885,0,0
0:4:30.871,1164.1,65.8725,0,0.000885,0,0
0:4:32.455,1171.85,66.3138,0,0.000885,0,0
0:4:34.052,1178.13,66.6654,0,0.000885,0,0
0:4:35.667,1184.24,67.017,0,0.000885,0,0
0:4:37.256,1191.81,67.4445,0,0.000885,0,0
0:4:38.863,1198.5,67.8237,0,0.000885,0,0
0:4:40.479,1207.25,68.3133,0,0.000885,0,0
0:4:42.076,1213.29,68.658,0,0.000885,0,0
0:4:43.674,1220.1,69.0441,0,0.000885,0,0
0:4:45.285,1227.26,69.4509,0,0.000885,0,0
0:4:46.872,1233.95,69.8301,0,0.000885,0,0
0:4:48.470,1241.53,70.2576,0,0.000885,0,0
0:4:50.084,1248.75,70.6644,0,0.000885,0,0
0:4:51.672,1256.32,71.0918,0,0.000885,0,0
0:4:53.271,1263.01,71.4711,0,0.000885,0,0
0:4:54.889,1269.76,71.8572,0,0.000885,0,0
0:4:56.484,1276.75,72.2502,0,0.000885,0,0
0:4:58.074,1283.79,72.6501,0,0.000885,0,0
0:4:59.683,1290.78,73.0431,0,0.000885,0,0
0:5:1.283,1297.7,73.4361,0,0.000885,0,0
0:5:2.871,1305.16,73.8566,0,0.000885,0,0
0:5:4.479,1312.67,74.2841,0,0.000885,0,0
0:5:6.075,1319.19,74.6495,0,0.000885,0,0
0:5:7.673,1326.82,75.0839,0,0.000885,0,0
0:5:9.282,1332.87,75.4217,0,0.000885,0,0
0:5:10.889,1341.08,75.8906,0,0.000885,0,0
0:5:12.476,1347.07,76.2284,0,0.000885,0,0
0:5:14.074,1354.52,76.649,0,0.000885,0,0
0:5:15.684,1361.98,77.0696,0,0.000885,0,0
0:5:17.273,1369.26,77.4833,0,0.000885,0,0
0:5:18.880,1376.07,77.8694,0,0.000885,0,0
0:5:20.484,1382.81,78.2486,0,0.000885,0,0
0:5:22.074,1390.04,78.6623,0,0.000885,0,0
0:5:23.673,1397.14,79.0622,0,0.000885,0,0
0:5:25.290,1404.53,79.4828,0,0.000885,0,0
0:5:26.878,1410.99,79.8482,0,0.000885,0,0
0:5:28.477,1418.74,80.2826,0,0.000885,0,0
0:5:30.085,1425.9,80.6893,0,0.000885,0,0
0:5:31.677,1431.71,81.0203,0,0.000885,0,0
0:5:33.274,1439.64,81.4685,0,0.000885,0,0
0:5:34.890,1446.27,81.8408,0,0.000885,0,0
0:5:36.486,1453.55,82.2545,0,0.000885,0,0
0:5:38.077,1460.59,82.6544,0,0.000885,0,0
0:5:39.684,1467.99,83.068,0,0.000885,0,0
0:5:41.282,1474.86,83.461,0,0.000885,0,0
0:5:42.879,1482.44,83.8885,0,0.000885,0,0
0:5:44.489,1489.69,84.3022,0,0.000885,0,0
0:5:46.089,1495.1,84.6056,0,0.000885,0,0
0:5:47.675,1503.58,85.0882,0,0.000885,0,0
0:5:49.283,1510.71,85.4881,0,0.000885,0,0
0:5:50.886,1516.59,85.819,0,0.000885,0,0
0:5:52.476,1524.54,86.2741,0,0.000885,0,0
0:5:54.084,1532.2,86.7016,0,0.000885,0,0
0:5:55.686,1538.32,87.0532,0,0.000885,0,0
0:5:57.282,1545.68,87.4669,0,0.000885,0,0
0:5:58.880,1552.22,87.8392,0,0.000885,0,0
0:6:0.490,1558.34,88.1839,0,0.000885,0,0
0:6:2.077,1566.29,88.6321,0,0.000885,0,0
0:6:3.671,1573.71,89.0527,0,0.000885,0,0
0:6:5.287,1580.72,89.4526,0,0.000885,0,0
0:6:6.883,1579.42,89.3767,0,0.000885,0,0
0:6:8.478,1461.94,82.7302,0,0.000885,0,0
0:6:10.090,1460.48,82.6475,0,0.000885,0,0
0:6:10.402,1138.98,64.4522,0,0.000885,0,0