File: DataFile2021-06-09_064428.csv
Test ID:,Date Tested:,Time:,Test Type:,Diameter Avg. (mm):,Cyl. Corr. Factor:,Height (mm):,Age (days):,Weight (kN):,Break Type:,Ramp Rate (MPa/s):,Load at Break (kN):,Stress at Break (MPa):
12,6/9/2021,06:44,Cylinder,100,1,200,0,3.6,3,0.25,516.3,65.73
Sample Time,Load (kN),Stress (MPa),Long. Strain,Trans. Strain,Chan1 Deflection (mm),Chan2 Deflection (mm)
0:0:21.151,6.33427,0.806687,0,0.000885,0,0
0:0:22.246,14.7192,1.87537,0,0.000885,0,0
0:0:23.369,14.0163,1.78574,0,0.000885,0,0
0:0:24.469,13.4915,1.71679,0,0.000885,0,0
0:0:25.564,12.9621,1.64785,0,0.000885,0,0
0:0:26.673,15.3686,1.95811,0,0.000885,0,0
0:0:27.784,17.3036,2.20632,0,0.000885,0,0
0:0:28.881,20.1193,2.55795,0,0.000885,0,0
0:0:29.977,22.9929,2.93027,0,0.000885,0,0
0:0:31.072,25.2214,3.21296,0,0.000885,0,0
0:0:32.179,26.9206,3.42669,0,0.000885,0,0
0:0:33.284,29.0335,3.69559,0,0.000885,0,0
0:0:34.378,31.2043,3.97138,0,0.000885,0,0
0:0:35.472,33.4328,4.25407,0,0.000885,0,0
0:0:36.565,35.6614,4.54365,0,0.000885,0,0
0:0:37.681,38.0056,4.84012,0,0.000885,0,0
0:0:38.784,39.8828,5.07454,0,0.000885,0,0
0:0:39.878,41.9957,5.34344,0,0.000885,0,0
0:0:40.971,44.5178,5.66749,0,0.000885,0,0
0:0:42.080,46.217,5.88123,0,0.000885,0,0
0:0:43.182,48.2677,6.14323,0,0.000885,0,0
0:0:44.278,50.6163,6.4466,0,0.000885,0,0
0:0:45.372,53.0806,6.75686,0,0.000885,0,0
0:0:46.477,54.3706,6.92234,0,0.000885,0,0
0:0:47.589,57.3598,7.30155,0,0.000885,0,0
0:0:48.690,59.2948,7.54976,0,0.000885,0,0
0:0:49.782,61.7013,7.85313,0,0.000885,0,0
0:0:50.877,63.9298,8.14271,0,0.000885,0,0
0:0:51.982,65.6291,8.35645,0,0.000885,0,0
0:0:53.092,67.7998,8.63224,0,0.000885,0,0
0:0:54.188,70.144,8.92871,0,0.000885,0,0
0:0:55.281,72.0212,9.17003,0,0.000885,0,0
0:0:56.375,74.0762,9.43203,0,0.000885,0,0
0:0:57.483,76.5405,9.74229,0,0.000885,0,0
0:0:58.585,78.4177,9.98361,0,0.000885,0,0
0:0:59.680,80.7619,10.2801,0,0.000885,0,0
0:1:0.777,83.3997,10.6179,0,0.000885,0,0
0:1:1.881,85.2769,10.8592,0,0.000885,0,0
0:1:2.992,87.5632,11.1488,0,0.000885,0,0
0:1:4.086,89.1468,11.3488,0,0.000885,0,0
0:1:5.180,91.8469,11.6935,0,0.000885,0,0
0:1:6.273,94.2534,12.0038,0,0.000885,0,0
0:1:7.385,95.7747,12.1968,0,0.000885,0,0
0:1:8.490,98.5326,12.5485,0,0.000885,0,0
0:1:9.583,100.997,12.8587,0,0.000885,0,0
0:1:10.679,102.229,13.0173,0,0.000885,0,0
0:1:11.774,104.809,13.3414,0,0.000885,0,0
0:1:12.885,106.157,13.5137,0,0.000885,0,0
0:1:13.982,108.621,13.8309,0,0.000885,0,0
0:1:15.079,111.317,14.1756,0,0.000885,0,0
0:1:16.183,113.314,14.4307,0,0.000885,0,0
0:1:17.292,115.422,14.6996,0,0.000885,0,0
0:1:18.398,117.3,14.934,0,0.000885,0,0
0:1:19.493,119.47,15.2098,0,0.000885,0,0
0:1:20.588,122.108,15.5477,0,0.000885,0,0
0:1:21.693,124.341,15.8304,0,0.000885,0,0
0:1:22.802,126.507,16.1062,0,0.000885,0,0
0:1:23.899,128.269,16.3337,0,0.000885,0,0
0:1:24.993,130.613,16.6302,0,0.000885,0,0
0:1:26.085,132.668,16.8922,0,0.000885,0,0
0:1:27.197,135.012,17.1886,0,0.000885,0,0
0:1:28.301,136.947,17.4368,0,0.000885,0,0
0:1:29.397,139.176,17.7195,0,0.000885,0,0
0:1:30.493,141.467,18.0091,0,0.000885,0,0
0:1:31.590,143.811,18.3125,0,0.000885,0,0
0:1:32.704,145.573,18.5331,0,0.000885,0,0
0:1:33.800,147.801,18.8158,0,0.000885,0,0
0:1:34.898,150.261,19.133,0,0.000885,0,0
0:1:35.993,152.022,19.3536,0,0.000885,0,0
0:1:37.099,154.545,19.6776,0,0.000885,0,0
0:1:38.206,156.537,19.9327,0,0.000885,0,0
0:1:39.297,158.592,20.1947,0,0.000885,0,0
0:1:40.394,160.643,20.4567,0,0.000885,0,0
0:1:41.490,163.223,20.7808,0,0.000885,0,0
0:1:42.603,164.927,21.0014,0,0.000885,0,0
0:1:43.704,167.155,21.2841,0,0.000885,0,0
0:1:44.796,169.206,21.5461,0,0.000885,0,0
0:1:45.890,171.555,21.8426,0,0.000885,0,0
0:1:46.991,174.014,22.1597,0,0.000885,0,0
0:1:48.101,175.66,22.3666,0,0.000885,0,0
0:1:49.199,177.769,22.6355,0,0.000885,0,0
0:1:50.295,180.233,22.9458,0,0.000885,0,0
0:1:51.391,182.284,23.2078,0,0.000885,0,0
0:1:52.505,184.454,23.4835,0,0.000885,0,0
0:1:53.607,187.034,23.8145,0,0.000885,0,0
0:1:54.700,188.796,24.0351,0,0.000885,0,0
0:1:55.793,191.082,24.3316,0,0.000885,0,0
0:1:56.894,193.369,24.6212,0,0.000885,0,0
0:1:57.996,195.366,24.8763,0,0.000885,0,0
0:1:59.086,197.474,25.1452,0,0.000885,0,0
0:2:0.170,199.703,25.4279,0,0.000885,0,0
0:2:1.273,201.407,25.6416,0,0.000885,0,0
0:2:2.375,203.577,25.9174,0,0.000885,0,0
0:2:3.471,205.686,26.1863,0,0.000885,0,0
0:2:4.580,208.559,26.5517,0,0.000885,0,0
0:2:5.675,210.499,26.7999,0,0.000885,0,0
0:2:6.773,212.665,27.0757,0,0.000885,0,0
0:2:7.873,214.427,27.3032,0,0.000885,0,0
0:2:8.970,216.771,27.5997,0,0.000885,0,0
0:2:10.084,218.706,27.8479,0,0.000885,0,0
0:2:11.168,221.29,28.172,0,0.000885,0,0
0:2:12.272,223.105,28.4064,0,0.000885,0,0
0:2:13.365,225.569,28.7236,0,0.000885,0,0
0:2:14.452,227.918,29.02,0,0.000885,0,0
0:2:15.541,229.969,29.282,0,0.000885,0,0
0:2:16.629,232.019,29.544,0,0.000885,0,0
0:2:17.736,234.016,29.7991,0,0.000885,0,0
0:2:18.827,236.245,30.0818,0,0.000885,0,0
0:2:19.913,237.886,30.2887,0,0.000885,0,0
0:2:20.998,240.351,30.5989,0,0.000885,0,0
0:2:22.094,242.637,30.8954,0,0.000885,0,0
0:2:23.199,244.808,31.1712,0,0.000885,0,0
0:2:24.288,247.388,31.4953,0,0.000885,0,0
0:2:25.384,249.207,31.7297,0,0.000885,0,0
0:2:26.483,250.964,31.9572,0,0.000885,0,0
0:2:27.590,253.838,32.3226,0,0.000885,0,0
0:2:28.676,255.484,32.5295,0,0.000885,0,0
0:2:29.774,257.65,32.8053,0,0.000885,0,0
0:2:30.870,259.763,33.0742,0,0.000885,0,0
0:2:31.981,262.285,33.3982,0,0.000885,0,0
0:2:33.082,264.278,33.6464,0,0.000885,0,0
0:2:34.185,266.097,33.8808,0,0.000885,0,0
0:2:35.278,269.028,34.2532,0,0.000885,0,0
0:2:36.374,271.026,34.5083,0,0.000885,0,0
0:2:37.477,272.961,34.7565,0,0.000885,0,0
0:2:38.583,274.896,34.9978,0,0.000885,0,0
0:2:39.668,277.182,35.2943,0,0.000885,0,0
0:2:40.786,279.237,35.5563,0,0.000885,0,0
0:2:41.886,281.23,35.8045,0,0.000885,0,0
0:2:42.985,283.926,36.1492,0,0.000885,0,0
0:2:44.089,286.506,36.4802,0,0.000885,0,0
0:2:45.174,288.383,36.7215,0,0.000885,0,0
0:2:46.284,289.557,36.8663,0,0.000885,0,0
0:2:47.391,292.079,37.1903,0,0.000885,0,0
0:2:48.485,294.192,37.4592,0,0.000885,0,0
0:2:49.591,296.714,37.7764,0,0.000885,0,0
0:2:50.676,299.116,38.0866,0,0.000885,0,0
0:2:51.764,300.82,38.3004,0,0.000885,0,0
0:2:52.870,302.577,38.5279,0,0.000885,0,0
0:2:53.958,305.041,38.8382,0,0.000885,0,0
0:2:55.046,307.27,39.1209,0,0.000885,0,0
0:2:56.135,309.908,39.4587,0,0.000885,0,0
0:2:57.241,311.491,39.6586,0,0.000885,0,0
0:2:58.334,313.604,39.9275,0,0.000885,0,0
0:2:59.420,315.775,40.2033,0,0.000885,0,0
0:3:0.505,318.119,40.5067,0,0.000885,0,0
0:3:1.597,320.116,40.7549,0,0.000885,0,0
0:3:2.701,322.283,41.0376,0,0.000885,0,0
0:3:3.790,324.338,41.2927,0,0.000885,0,0
0:3:4.886,325.979,41.5064,0,0.000885,0,0
0:3:5.985,328.853,41.8719,0,0.000885,0,0
0:3:7.078,330.845,42.127,0,0.000885,0,0
0:3:8.177,333.252,42.4303,0,0.000885,0,0
0:3:9.282,335.307,42.6923,0,0.000885,0,0
0:3:10.369,336.948,42.8992,0,0.000885,0,0
0:3:11.468,339.119,43.175,0,0.000885,0,0
0:3:12.569,341.579,43.4921,0,0.000885,0,0
0:3:13.674,343.692,43.761,0,0.000885,0,0
0:3:14.770,345.92,44.0437,0,0.000885,0,0
0:3:15.865,348.736,44.4022,0,0.000885,0,0
0:3:16.963,350.613,44.6436,0,0.000885,0,0
0:3:18.059,352.548,44.8849,0,0.000885,0,0
0:3:19.144,354.016,45.0779,0,0.000885,0,0
0:3:20.233,356.89,45.4433,0,0.000885,0,0
0:3:21.321,358.767,45.6778,0,0.000885,0,0
0:3:22.426,361.347,46.0087,0,0.000885,0,0
0:3:23.519,362.695,46.1811,0,0.000885,0,0
0:3:24.605,365.92,46.5879,0,0.000885,0,0
0:3:25.691,367.388,46.774,0,0.000885,0,0
0:3:26.795,369.616,47.0636,0,0.000885,0,0
0:3:27.888,372.018,47.367,0,0.000885,0,0
0:3:28.987,373.895,47.6083,0,0.000885,0,0
0:3:30.093,376.302,47.9117,0,0.000885,0,0
0:3:31.177,377.885,48.1116,0,0.000885,0,0
0:3:32.280,379.998,48.3805,0,0.000885,0,0
0:3:33.384,382.694,48.7252,0,0.000885,0,0
0:3:34.470,384.807,48.9941,0,0.000885,0,0
0:3:35.556,386.977,49.2699,0,0.000885,0,0
0:3:36.650,389.148,49.5457,0,0.000885,0,0
0:3:37.753,391.199,49.8077,0,0.000885,0,0
0:3:38.843,393.192,50.0628,0,0.000885,0,0
0:3:39.931,395.598,50.3662,0,0.000885,0,0
0:3:41.020,397.711,50.6351,0,0.000885,0,0
0:3:42.126,399.94,50.9247,0,0.000885,0,0
0:3:43.217,401.754,51.1522,0,0.000885,0,0
0:3:44.300,404.045,51.4418,0,0.000885,0,0
0:3:45.396,405.86,51.6762,0,0.000885,0,0
0:3:46.494,408.56,52.0209,0,0.000885,0,0
0:3:47.598,410.611,52.2829,0,0.000885,0,0
0:3:48.697,412.546,52.5243,0,0.000885,0,0
0:3:49.792,414.717,52.8001,0,0.000885,0,0
0:3:50.897,417.297,53.131,0,0.000885,0,0
0:3:52.000,419.174,53.3723,0,0.000885,0,0
0:3:53.096,421.109,53.6205,0,0.000885,0,0
0:3:54.193,423.515,53.9239,0,0.000885,0,0
0:3:55.292,425.45,54.1721,0,0.000885,0,0
0:3:56.396,427.972,54.4893,0,0.000885,0,0
0:3:57.502,429.907,54.7375,0,0.000885,0,0
0:3:58.592,432.02,55.0064,0,0.000885,0,0
0:3:59.687,434.191,55.2822,0,0.000885,0,0
0:4:0.796,436.242,55.5442,0,0.000885,0,0
0:4:1.894,438.234,55.7993,0,0.000885,0,0
0:4:2.994,440.289,56.0613,0,0.000885,0,0
0:4:4.098,442.754,56.3715,0,0.000885,0,0
0:4:5.194,445.156,56.6818,0,0.000885,0,0
0:4:6.291,447.384,56.9645,0,0.000885,0,0
0:4:7.396,449.204,57.192,0,0.000885,0,0
0:4:8.498,451.317,57.4609,0,0.000885,0,0
0:4:9.593,453.897,57.7919,0,0.000885,0,0
0:4:10.698,455.889,58.047,0,0.000885,0,0
0:4:11.803,458.118,58.3296,0,0.000885,0,0
0:4:12.899,460.115,58.5848,0,0.000885,0,0
0:4:13.998,462.05,58.833,0,0.000885,0,0
0:4:15.093,463.807,59.0536,0,0.000885,0,0
0:4:16.194,466.565,59.4052,0,0.000885,0,0
0:4:17.298,468.736,59.681,0,0.000885,0,0
0:4:18.396,470.964,59.9637,0,0.000885,0,0
0:4:19.494,473.429,60.2809,0,0.000885,0,0
0:4:20.599,475.012,60.4808,0,0.000885,0,0
0:4:21.705,476.827,60.7083,0,0.000885,0,0
0:4:22.807,479.118,61.0048,0,0.000885,0,0
0:4:23.892,481.053,61.2461,0,0.000885,0,0
0:4:24.997,483.219,61.5288,0,0.000885,0,0
0:4:26.094,485.568,61.8253,0,0.000885,0,0
0:4:27.202,487.561,62.0804,0,0.000885,0,0
0:4:28.296,489.322,62.301,0,0.000885,0,0
0:4:29.393,492.018,62.6458,0,0.000885,0,0
0:4:30.497,493.953,62.894,0,0.000885,0,0
0:4:31.599,495.714,63.1146,0,0.000885,0,0
0:4:32.701,497.943,63.3973,0,0.000885,0,0
0:4:33.796,500.229,63.6938,0,0.000885,0,0
0:4:34.902,500.816,63.7627,0,0.000885,0,0
0:4:35.999,501.813,63.8937,0,0.000885,0,0
0:4:37.105,504.277,64.204,0,0.000885,0,0
0:4:38.199,507.208,64.5832,0,0.000885,0,0
0:4:39.296,511.021,65.0658,0,0.000885,0,0
0:4:40.402,515.362,65.6174,0,0.000885,0,0
0:4:41.504,516.301,65.7346,0,0.000885,0,0
0:4:42.605,425.628,54.1928,0,0.000885,0,0
0:4:43.700,363.749,46.3121,0,0.000885,0,0
0:4:43.770,363.749,46.3121,0,0.000885,0,0