File: DataFile2021-06-07_052507.csv
Test ID:,Date Tested:,Time:,Test Type:,Diameter Avg. (mm):,Cyl. Corr. Factor:,Height (mm):,Age (days):,Weight (kN):,Break Type:,Ramp Rate (MPa/s):,Load at Break (kN):,Stress at Break (MPa):
12,6/7/2021,05:25,Cylinder,100,1,200,0,3.6,3,0.25,917.51,116.82
Sample Time,Load (kN),Stress (MPa),Long. Strain,Trans. Strain,Chan1 Deflection (mm),Chan2 Deflection (mm)
0:0:14.764,8.32707,1.06179,0,0.000885,0,0
0:0:16.767,12.4906,1.59269,0,0.000885,0,0
0:0:18.770,12.8465,1.63406,0,0.000885,0,0
0:0:20.781,16.0714,2.04774,0,0.000885,0,0
0:0:22.782,22.1121,2.81306,0,0.000885,0,0
0:0:24.773,24.4563,3.11643,0,0.000885,0,0
0:0:26.787,28.9134,3.6818,0,0.000885,0,0
0:0:28.777,32.6677,4.15754,0,0.000885,0,0
0:0:30.773,36.7734,4.68154,0,0.000885,0,0
0:0:32.777,40.8792,5.20554,0,0.000885,0,0
0:0:34.768,44.8069,5.70196,0,0.000885,0,0
0:0:36.781,48.6191,6.19149,0,0.000885,0,0
0:0:38.770,52.3155,6.66034,0,0.000885,0,0
0:0:40.786,55.9542,7.12228,0,0.000885,0,0
0:0:42.784,60.3535,7.68076,0,0.000885,0,0
0:0:44.775,64.8684,8.25992,0,0.000885,0,0
0:0:46.788,68.0934,8.66671,0,0.000885,0,0
0:0:48.778,71.9633,9.16313,0,0.000885,0,0
0:0:50.783,76.1269,9.69403,0,0.000885,0,0
0:0:52.790,80.0013,10.1836,0,0.000885,0,0
0:0:54.778,83.929,10.6869,0,0.000885,0,0
0:0:56.793,87.799,11.1764,0,0.000885,0,0
0:0:58.781,91.5533,11.659,0,0.000885,0,0
0:1:0.787,95.6012,12.1692,0,0.000885,0,0
0:1:2.791,99.529,12.6726,0,0.000885,0,0
0:1:4.782,103.399,13.1621,0,0.000885,0,0
0:1:6.797,107.625,13.6999,0,0.000885,0,0
0:1:8.787,111.201,14.1618,0,0.000885,0,0
0:1:10.785,115.129,14.6583,0,0.000885,0,0
0:1:12.790,119.119,15.1685,0,0.000885,0,0
0:1:14.780,123.46,15.72,0,0.000885,0,0
0:1:16.791,127.095,16.182,0,0.000885,0,0
0:1:18.780,130.733,16.6439,0,0.000885,0,0
0:1:20.785,134.839,17.1679,0,0.000885,0,0
0:1:22.788,138.651,17.6506,0,0.000885,0,0
0:1:24.780,143.108,18.2228,0,0.000885,0,0
0:1:26.792,146.742,18.6848,0,0.000885,0,0
0:1:28.781,150.732,19.195,0,0.000885,0,0
0:1:30.779,154.251,19.6432,0,0.000885,0,0
0:1:32.782,158.472,20.1741,0,0.000885,0,0
0:1:34.769,162.405,20.6774,0,0.000885,0,0
0:1:36.784,166.159,21.1531,0,0.000885,0,0
0:1:38.775,169.971,21.6426,0,0.000885,0,0
0:1:40.787,173.783,22.1253,0,0.000885,0,0
0:1:42.791,178.12,22.6769,0,0.000885,0,0
0:1:44.779,182.284,23.2078,0,0.000885,0,0
0:1:46.789,186.158,23.7042,0,0.000885,0,0
0:1:48.777,189.912,24.1799,0,0.000885,0,0
0:1:50.775,193.898,24.6901,0,0.000885,0,0
0:1:52.776,197.888,25.1934,0,0.000885,0,0
0:1:54.771,201.349,25.6347,0,0.000885,0,0
0:1:56.784,205.454,26.1587,0,0.000885,0,0
0:1:58.768,209.618,26.6896,0,0.000885,0,0
0:2:0.775,213.016,27.124,0,0.000885,0,0
0:2:2.775,217.767,27.7238,0,0.000885,0,0
0:2:4.778,220.934,28.1306,0,0.000885,0,0
0:2:6.775,224.924,28.6408,0,0.000885,0,0
0:2:8.776,229.439,29.2131,0,0.000885,0,0
0:2:10.778,233.487,29.7302,0,0.000885,0,0
0:2:12.769,236.89,30.1646,0,0.000885,0,0
0:2:14.777,240.76,30.6541,0,0.000885,0,0
0:2:16.786,244.572,31.1367,0,0.000885,0,0
0:2:18.770,248.442,31.6331,0,0.000885,0,0
0:2:20.786,253.193,32.2399,0,0.000885,0,0
0:2:22.782,256.596,32.6674,0,0.000885,0,0
0:2:24.773,260.114,33.1155,0,0.000885,0,0
0:2:26.782,264.513,33.6809,0,0.000885,0,0
0:2:28.778,268.268,34.1566,0,0.000885,0,0
0:2:30.779,272.489,34.6944,0,0.000885,0,0
0:2:32.783,276.301,35.1771,0,0.000885,0,0
0:2:34.779,279.704,35.6114,0,0.000885,0,0
0:2:36.780,284.633,36.2388,0,0.000885,0,0
0:2:38.773,288.151,36.687,0,0.000885,0,0
0:2:40.788,291.728,37.1421,0,0.000885,0,0
0:2:42.784,296.007,37.6867,0,0.000885,0,0
0:2:44.766,299.761,38.1694,0,0.000885,0,0
0:2:46.786,303.925,38.7003,0,0.000885,0,0
0:2:48.771,307.385,39.1346,0,0.000885,0,0
0:2:50.783,312.198,39.7483,0,0.000885,0,0
0:2:52.777,315.366,40.1551,0,0.000885,0,0
0:2:54.782,319.351,40.6584,0,0.000885,0,0
0:2:56.793,322.87,41.1065,0,0.000885,0,0
0:2:58.776,327.563,41.7064,0,0.000885,0,0
0:3:0.794,331.317,42.1821,0,0.000885,0,0
0:3:2.783,335.071,42.6648,0,0.000885,0,0
0:3:4.785,339.177,43.1819,0,0.000885,0,0
0:3:6.783,343.283,43.7059,0,0.000885,0,0
0:3:8.775,346.623,44.1333,0,0.000885,0,0
0:3:10.779,350.965,44.6849,0,0.000885,0,0
0:3:12.785,354.661,45.1538,0,0.000885,0,0
0:3:14.777,358.531,45.6502,0,0.000885,0,0
0:3:16.779,362.93,46.2087,0,0.000885,0,0
0:3:18.784,366.685,46.6844,0,0.000885,0,0
0:3:20.775,370.203,47.1326,0,0.000885,0,0
0:3:22.788,374.776,47.7186,0,0.000885,0,0
0:3:24.788,378.237,48.1599,0,0.000885,0,0
0:3:26.790,382.872,48.7459,0,0.000885,0,0
0:3:28.793,386.155,49.1665,0,0.000885,0,0
0:3:30.785,389.793,49.6285,0,0.000885,0,0
0:3:32.770,393.957,50.1594,0,0.000885,0,0
0:3:34.775,398.236,50.704,0,0.000885,0,0
0:3:36.774,402.168,51.2074,0,0.000885,0,0
0:3:38.789,405.745,51.6624,0,0.000885,0,0
0:3:40.790,409.321,52.1175,0,0.000885,0,0
0:3:42.788,413.836,52.6897,0,0.000885,0,0
0:3:44.779,417.648,53.1793,0,0.000885,0,0
0:3:46.780,421.58,53.6757,0,0.000885,0,0
0:3:48.787,425.802,54.2135,0,0.000885,0,0
0:3:50.783,429.147,54.641,0,0.000885,0,0
0:3:52.782,433.368,55.1787,0,0.000885,0,0
0:3:54.776,437.474,55.7027,0,0.000885,0,0
0:3:56.789,441.05,56.1578,0,0.000885,0,0
0:3:58.784,445.392,56.7094,0,0.000885,0,0
0:4:0.790,448.737,57.1369,0,0.000885,0,0
0:4:2.790,453.425,57.7298,0,0.000885,0,0
0:4:4.793,456.948,58.178,0,0.000885,0,0
0:4:6.792,461.227,58.7226,0,0.000885,0,0
0:4:8.794,464.746,59.1708,0,0.000885,0,0
0:4:10.797,468.558,59.6603,0,0.000885,0,0
0:4:12.781,472.139,60.1154,0,0.000885,0,0
0:4:14.779,476.711,60.6945,0,0.000885,0,0
0:4:16.789,479.701,61.0807,0,0.000885,0,0
0:4:18.774,484.629,61.7081,0,0.000885,0,0
0:4:20.777,488.148,62.1562,0,0.000885,0,0
0:4:22.785,492.663,62.7285,0,0.000885,0,0
0:4:24.793,496.301,63.1905,0,0.000885,0,0
0:4:26.793,500.171,63.6869,0,0.000885,0,0
0:4:28.799,503.574,64.1143,0,0.000885,0,0
0:4:30.801,508.267,64.7142,0,0.000885,0,0
0:4:32.797,511.55,65.1348,0,0.000885,0,0
0:4:34.792,516.185,65.7208,0,0.000885,0,0
0:4:36.788,519.704,66.169,0,0.000885,0,0
0:4:38.794,523.458,66.6516,0,0.000885,0,0
0:4:40.785,527.328,67.1411,0,0.000885,0,0
0:4:42.788,531.785,67.7065,0,0.000885,0,0
0:4:44.795,535.188,68.1409,0,0.000885,0,0
0:4:46.795,539.289,68.6649,0,0.000885,0,0
0:4:48.793,543.457,69.1958,0,0.000885,0,0
0:4:50.786,546.976,69.6439,0,0.000885,0,0
0:4:52.795,551.375,70.2024,0,0.000885,0,0
0:4:54.786,554.658,70.623,0,0.000885,0,0
0:4:56.797,558.941,71.1677,0,0.000885,0,0
0:4:58.797,563.105,71.6986,0,0.000885,0,0
0:5:0.798,566.917,72.1812,0,0.000885,0,0
0:5:2.799,570.258,72.6087,0,0.000885,0,0
0:5:4.785,574.777,73.181,0,0.000885,0,0
0:5:6.787,578.82,73.6981,0,0.000885,0,0
0:5:8.794,582.459,74.16,0,0.000885,0,0
0:5:10.790,586.974,74.7392,0,0.000885,0,0
0:5:12.791,590.377,75.1666,0,0.000885,0,0
0:5:14.786,594.251,75.6631,0,0.000885,0,0
0:5:16.798,598.299,76.1802,0,0.000885,0,0
0:5:18.792,602.236,76.6766,0,0.000885,0,0
0:5:20.804,606.106,77.173,0,0.000885,0,0
0:5:22.805,610.158,77.6901,0,0.000885,0,0
0:5:24.788,614.033,78.1797,0,0.000885,0,0
0:5:26.796,617.849,78.6692,0,0.000885,0,0
0:5:28.780,622.075,79.207,0,0.000885,0,0
0:5:30.791,625.949,79.6965,0,0.000885,0,0
0:5:32.785,629.472,80.1447,0,0.000885,0,0
0:5:34.790,633.636,80.6756,0,0.000885,0,0
0:5:36.801,637.688,81.1927,0,0.000885,0,0
0:5:38.784,641.211,81.6408,0,0.000885,0,0
0:5:40.810,645.379,82.1717,0,0.000885,0,0
0:5:42.809,649.721,82.7233,0,0.000885,0,0
0:5:44.791,653.244,83.1715,0,0.000885,0,0
0:5:46.802,657.354,83.6955,0,0.000885,0,0
0:5:48.796,661.108,84.1781,0,0.000885,0,0
0:5:50.794,664.867,84.6538,0,0.000885,0,0
0:5:52.791,668.741,85.1434,0,0.000885,0,0
0:5:54.788,673.261,85.7225,0,0.000885,0,0
0:5:56.818,676.663,86.1569,0,0.000885,0,0
0:5:58.805,680.889,86.6947,0,0.000885,0,0
0:6:0.807,684.706,87.1773,0,0.000885,0,0
0:6:2.808,688.696,87.6875,0,0.000885,0,0
0:6:4.786,692.397,88.1564,0,0.000885,0,0
0:6:6.796,696.68,88.7011,0,0.000885,0,0
0:6:8.790,699.852,89.1078,0,0.000885,0,0
0:6:10.804,704.429,89.6939,0,0.000885,0,0
0:6:12.801,708.184,90.1696,0,0.000885,0,0
0:6:14.796,712,90.6523,0,0.000885,0,0
0:6:16.815,715.995,91.1625,0,0.000885,0,0
0:6:18.799,719.807,91.652,0,0.000885,0,0
0:6:20.806,723.859,92.1622,0,0.000885,0,0
0:6:22.805,727.849,92.6724,0,0.000885,0,0
0:6:24.808,731.666,93.162,0,0.000885,0,0
0:6:26.818,735.892,93.6998,0,0.000885,0,0
0:6:28.804,739.415,94.1479,0,0.000885,0,0
0:6:30.806,743.289,94.6374,0,0.000885,0,0
0:6:32.806,747.337,95.1545,0,0.000885,0,0
0:6:34.799,752.212,95.7751,0,0.000885,0,0
0:6:36.810,755.437,96.1888,0,0.000885,0,0
0:6:38.807,759.196,96.6645,0,0.000885,0,0
0:6:40.806,763.364,97.1954,0,0.000885,0,0
0:6:42.800,767.412,97.7125,0,0.000885,0,0
0:6:44.814,771.344,98.2089,0,0.000885,0,0
0:6:46.825,774.867,98.6571,0,0.000885,0,0
0:6:48.807,778.861,99.1673,0,0.000885,0,0
0:6:50.812,783.203,99.7189,0,0.000885,0,0
0:6:52.800,786.784,100.174,0,0.000885,0,0
0:6:54.787,790.894,100.698,0,0.000885,0,0
0:6:56.796,794.768,101.194,0,0.000885,0,0
0:6:58.793,798.407,101.656,0,0.000885,0,0
0:7:0.792,802.748,102.208,0,0.000885,0,0
0:7:2.790,806.858,102.732,0,0.000885,0,0
0:7:4.792,809.972,103.132,0,0.000885,0,0
0:7:6.810,814.198,103.67,0,0.000885,0,0
0:7:8.795,817.717,104.118,0,0.000885,0,0
0:7:10.798,822.062,104.669,0,0.000885,0,0
0:7:12.813,825.879,105.152,0,0.000885,0,0
0:7:14.807,829.927,105.669,0,0.000885,0,0
0:7:16.819,833.45,106.117,0,0.000885,0,0
0:7:18.804,838.027,106.703,0,0.000885,0,0
0:7:20.810,841.902,107.193,0,0.000885,0,0
0:7:22.808,845.718,107.682,0,0.000885,0,0
0:7:24.812,849.65,108.179,0,0.000885,0,0
0:7:26.823,853.289,108.648,0,0.000885,0,0
0:7:28.809,857.808,109.22,0,0.000885,0,0
0:7:30.822,861.274,109.661,0,0.000885,0,0
0:7:32.817,865.677,110.22,0,0.000885,0,0
0:7:34.801,869.552,110.716,0,0.000885,0,0
0:7:36.822,873.248,111.185,0,0.000885,0,0
0:7:38.807,877.652,111.743,0,0.000885,0,0
0:7:40.811,881.348,112.219,0,0.000885,0,0
0:7:42.813,885.281,112.715,0,0.000885,0,0
0:7:44.818,889.039,113.198,0,0.000885,0,0
0:7:46.826,888.274,113.102,0,0.000885,0,0
0:7:48.819,897.9,114.322,0,0.000885,0,0
0:7:50.819,901.717,114.811,0,0.000885,0,0
0:7:52.813,902.482,114.908,0,0.000885,0,0
0:7:54.806,906.588,115.432,0,0.000885,0,0
0:7:56.813,908.349,115.653,0,0.000885,0,0
0:7:58.807,688.696,87.6875,0,0.000885,0,0
0:8:0.796,683.883,87.0739,0,0.000885,0,0
0:8:2.790,689.345,87.7703,0,0.000885,0,0
0:8:4.769,651.718,82.9784,0,0.000885,0,0
0:8:5.387,645.788,82.2269,0,0.000885,0,0