File: DataFile2021-06-08_070835.csv
Test ID:,Date Tested:,Time:,Test Type:,Diameter Avg. (mm):,Cyl. Corr. Factor:,Height (mm):,Age (days):,Weight (kN):,Break Type:,Ramp Rate (MPa/s):,Load at Break (kN):,Stress at Break (MPa):
12,6/8/2021,07:08,Cylinder,100,1,200,0,3.6,3,0.23,213.14,27.14
Sample Time,Load (kN),Stress (MPa),Long. Strain,Trans. Strain,Chan1 Deflection (mm),Chan2 Deflection (mm)
0:0:17.172,5.21776,0.661897,0,0.000885,0,0
0:0:17.666,10.3243,1.3169,0,0.000885,0,0
0:0:18.163,9.73716,1.24106,0,0.000885,0,0
0:0:18.656,9.14999,1.16521,0,0.000885,0,0
0:0:19.153,9.44357,1.19969,0,0.000885,0,0
0:0:19.648,8.67848,1.10316,0,0.000885,0,0
0:0:20.144,9.14999,1.16521,0,0.000885,0,0
0:0:20.639,11.2006,1.42721,0,0.000885,0,0
0:0:21.137,12.0235,1.53064,0,0.000885,0,0
0:0:21.633,13.0199,1.65474,0,0.000885,0,0
0:0:22.130,14.2521,1.81332,0,0.000885,0,0
0:0:22.625,15.1328,1.92364,0,0.000885,0,0
0:0:23.131,15.6577,1.99258,0,0.000885,0,0
0:0:23.637,17.4771,2.22701,0,0.000885,0,0
0:0:24.139,18.8871,2.40627,0,0.000885,0,0
0:0:24.639,19.4699,2.48211,0,0.000885,0,0
0:0:25.137,20.88,2.66138,0,0.000885,0,0
0:0:25.634,21.5249,2.73722,0,0.000885,0,0
0:0:26.134,22.4635,2.86132,0,0.000885,0,0
0:0:26.632,23.5177,2.99232,0,0.000885,0,0
0:0:27.129,24.87,3.16469,0,0.000885,0,0
0:0:27.634,25.9821,3.30948,0,0.000885,0,0
0:0:28.141,27.3299,3.48185,0,0.000885,0,0
0:0:28.645,28.6199,3.64733,0,0.000885,0,0
0:0:29.144,29.9098,3.80591,0,0.000885,0,0
0:0:29.642,30.6171,3.89554,0,0.000885,0,0
0:0:30.138,31.0842,3.95759,0,0.000885,0,0
0:0:30.637,31.6135,4.02654,0,0.000885,0,0
0:0:31.132,32.3163,4.11617,0,0.000885,0,0
0:0:31.630,33.0191,4.2058,0,0.000885,0,0
0:0:32.128,34.6027,4.40575,0,0.000885,0,0
0:0:32.633,35.6614,4.54365,0,0.000885,0,0
0:0:33.138,36.3064,4.61949,0,0.000885,0,0
0:0:33.641,37.3028,4.75049,0,0.000885,0,0
0:0:34.142,38.357,4.88149,0,0.000885,0,0
0:0:34.640,39.1799,4.9918,0,0.000885,0,0
0:0:35.138,40.7012,5.18486,0,0.000885,0,0
0:0:35.635,41.2884,5.25381,0,0.000885,0,0
0:0:36.132,42.1691,5.37102,0,0.000885,0,0
0:0:36.631,43.4591,5.53649,0,0.000885,0,0
0:0:37.131,44.8069,5.70196,0,0.000885,0,0
0:0:37.632,45.3941,5.77781,0,0.000885,0,0
0:0:38.138,46.5684,5.92949,0,0.000885,0,0
0:0:38.643,47.3914,6.03291,0,0.000885,0,0
0:0:39.145,48.2098,6.13633,0,0.000885,0,0
0:0:39.641,48.9749,6.23286,0,0.000885,0,0
0:0:40.140,50.1448,6.38455,0,0.000885,0,0
0:0:40.637,50.9099,6.48107,0,0.000885,0,0
0:0:41.135,52.3155,6.66034,0,0.000885,0,0
0:0:41.631,52.9605,6.74307,0,0.000885,0,0
0:0:42.130,54.4284,6.92923,0,0.000885,0,0
0:0:42.629,54.9533,6.99818,0,0.000885,0,0
0:0:43.139,56.1277,7.14986,0,0.000885,0,0
0:0:43.642,57.2442,7.28776,0,0.000885,0,0
0:0:44.145,58.2984,7.42565,0,0.000885,0,0
0:0:44.643,59.0012,7.51529,0,0.000885,0,0
0:0:45.140,60.2912,7.67386,0,0.000885,0,0
0:0:45.638,60.9362,7.7566,0,0.000885,0,0
0:0:46.136,61.937,7.8876,0,0.000885,0,0
0:0:46.634,62.7555,7.99102,0,0.000885,0,0
0:0:47.133,64.3391,8.19097,0,0.000885,0,0
0:0:47.631,64.6905,8.23923,0,0.000885,0,0
0:0:48.138,65.9226,8.39092,0,0.000885,0,0
0:0:48.641,67.3327,8.57018,0,0.000885,0,0
0:0:49.147,67.9154,8.64603,0,0.000885,0,0
0:0:49.645,68.7962,8.75634,0,0.000885,0,0
0:0:50.143,69.6191,8.86666,0,0.000885,0,0
0:0:50.639,70.3798,8.96318,0,0.000885,0,0
0:0:51.137,71.6119,9.11487,0,0.000885,0,0
0:0:51.635,73.1377,9.31482,0,0.000885,0,0
0:0:52.135,73.7248,9.38376,0,0.000885,0,0
0:0:52.631,74.6056,9.50098,0,0.000885,0,0
0:0:53.138,76.1891,9.70092,0,0.000885,0,0
0:0:53.641,76.5984,9.75608,0,0.000885,0,0
0:0:54.146,77.4168,9.8595,0,0.000885,0,0
0:0:54.644,78.5334,9.9974,0,0.000885,0,0
0:0:55.142,79.5876,10.1353,0,0.000885,0,0
0:0:55.638,80.4683,10.2456,0,0.000885,0,0
0:0:56.137,81.6427,10.3973,0,0.000885,0,0
0:0:56.634,82.5812,10.5145,0,0.000885,0,0
0:0:57.131,83.5198,10.6317,0,0.000885,0,0
0:0:57.639,84.3383,10.7351,0,0.000885,0,0
0:0:58.144,85.6283,10.9006,0,0.000885,0,0
0:0:58.649,86.6869,11.0385,0,0.000885,0,0
0:0:59.147,87.6255,11.1557,0,0.000885,0,0
0:0:59.643,88.6219,11.2867,0,0.000885,0,0
0:1:0.140,89.734,11.4246,0,0.000885,0,0
0:1:0.637,90.6725,11.5418,0,0.000885,0,0
0:1:1.134,90.9083,11.5763,0,0.000885,0,0
0:1:1.634,92.6075,11.79,0,0.000885,0,0
0:1:2.130,93.1947,11.8659,0,0.000885,0,0
0:1:2.634,93.9598,11.9624,0,0.000885,0,0
0:1:3.141,95.6012,12.1692,0,0.000885,0,0
0:1:3.646,96.0104,12.2244,0,0.000885,0,0
0:1:4.146,97.2426,12.383,0,0.000885,0,0
0:1:4.645,98.0032,12.4795,0,0.000885,0,0
0:1:5.143,99.0619,12.6105,0,0.000885,0,0
0:1:5.641,99.9426,12.7277,0,0.000885,0,0
0:1:6.139,101.113,12.8725,0,0.000885,0,0
0:1:6.637,102.638,13.0656,0,0.000885,0,0
0:1:7.136,103.813,13.2172,0,0.000885,0,0
0:1:7.633,103.986,13.2379,0,0.000885,0,0
0:1:8.139,105.276,13.4034,0,0.000885,0,0
0:1:8.645,106.335,13.5413,0,0.000885,0,0
0:1:9.148,106.566,13.5689,0,0.000885,0,0
0:1:9.646,107.74,13.7206,0,0.000885,0,0
0:1:10.145,109.15,13.8998,0,0.000885,0,0
0:1:10.642,110.378,14.0515,0,0.000885,0,0
0:1:11.141,110.965,14.1274,0,0.000885,0,0
0:1:11.638,112.549,14.3273,0,0.000885,0,0
0:1:12.134,112.549,14.3273,0,0.000885,0,0
0:1:12.631,113.723,14.479,0,0.000885,0,0
0:1:13.137,115.013,14.6445,0,0.000885,0,0
0:1:13.642,115.952,14.7617,0,0.000885,0,0
0:1:14.147,117.068,14.9065,0,0.000885,0,0
0:1:14.645,118.123,15.0375,0,0.000885,0,0
0:1:15.143,119.119,15.1685,0,0.000885,0,0
0:1:15.639,119.528,15.2167,0,0.000885,0,0
0:1:16.138,120.996,15.4029,0,0.000885,0,0
0:1:16.636,122.344,15.5753,0,0.000885,0,0
0:1:17.133,122.286,15.5684,0,0.000885,0,0
0:1:17.639,123.754,15.7545,0,0.000885,0,0
0:1:18.146,124.693,15.8786,0,0.000885,0,0
0:1:18.649,125.747,16.0096,0,0.000885,0,0
0:1:19.146,126.57,16.113,0,0.000885,0,0
0:1:19.644,127.624,16.2509,0,0.000885,0,0
0:1:20.142,128.914,16.4164,0,0.000885,0,0
0:1:20.641,129.617,16.506,0,0.000885,0,0
0:1:21.138,130.497,16.6164,0,0.000885,0,0
0:1:21.635,131.085,16.6922,0,0.000885,0,0
0:1:22.134,132.61,16.8853,0,0.000885,0,0
0:1:22.633,134.132,17.0783,0,0.000885,0,0
0:1:23.141,134.777,17.1611,0,0.000885,0,0
0:1:23.645,135.778,17.2852,0,0.000885,0,0
0:1:24.151,136.774,17.4162,0,0.000885,0,0
0:1:24.648,137.712,17.5334,0,0.000885,0,0
0:1:25.146,138.237,17.6023,0,0.000885,0,0
0:1:25.642,139.47,17.7609,0,0.000885,0,0
0:1:26.140,140.115,17.8367,0,0.000885,0,0
0:1:26.637,140.995,17.9539,0,0.000885,0,0
0:1:27.135,142.637,18.1608,0,0.000885,0,0
0:1:27.632,143.753,18.3056,0,0.000885,0,0
0:1:28.139,144.634,18.4159,0,0.000885,0,0
0:1:28.643,144.985,18.4573,0,0.000885,0,0
0:1:29.147,145.982,18.5883,0,0.000885,0,0
0:1:29.645,147.33,18.7606,0,0.000885,0,0
0:1:30.143,148.855,18.9537,0,0.000885,0,0
0:1:30.639,149.616,19.0502,0,0.000885,0,0
0:1:31.136,150.261,19.133,0,0.000885,0,0
0:1:31.632,151.262,19.2571,0,0.000885,0,0
0:1:32.129,152.08,19.3605,0,0.000885,0,0
0:1:32.638,153.37,19.526,0,0.000885,0,0
0:1:33.144,154.309,19.6501,0,0.000885,0,0
0:1:33.648,155.012,19.7397,0,0.000885,0,0
0:1:34.146,156.302,19.8983,0,0.000885,0,0
0:1:34.644,157.418,20.0431,0,0.000885,0,0
0:1:35.141,158.65,20.2016,0,0.000885,0,0
0:1:35.640,159.117,20.2568,0,0.000885,0,0
0:1:36.137,159.762,20.3395,0,0.000885,0,0
0:1:36.637,160.879,20.4843,0,0.000885,0,0
0:1:37.134,162.111,20.6429,0,0.000885,0,0
0:1:37.636,162.992,20.7532,0,0.000885,0,0
0:1:38.145,164.046,20.8842,0,0.000885,0,0
0:1:38.647,164.513,20.9463,0,0.000885,0,0
0:1:39.149,165.687,21.098,0,0.000885,0,0
0:1:39.649,167.213,21.291,0,0.000885,0,0
0:1:40.145,167.974,21.3875,0,0.000885,0,0
0:1:40.645,169.148,21.5392,0,0.000885,0,0
0:1:41.143,170.029,21.6495,0,0.000885,0,0
0:1:41.640,171.199,21.8012,0,0.000885,0,0
0:1:42.138,171.844,21.8771,0,0.000885,0,0
0:1:42.636,173.018,22.0287,0,0.000885,0,0
0:1:43.142,173.783,22.1253,0,0.000885,0,0
0:1:43.648,174.659,22.2356,0,0.000885,0,0
0:1:44.152,175.776,22.3804,0,0.000885,0,0
0:1:44.648,177.008,22.539,0,0.000885,0,0
0:1:45.148,177.653,22.6217,0,0.000885,0,0
0:1:45.645,178.414,22.7182,0,0.000885,0,0
0:1:46.144,179.766,22.8906,0,0.000885,0,0
0:1:46.639,180.469,22.9802,0,0.000885,0,0
0:1:47.138,181.407,23.0974,0,0.000885,0,0
0:1:47.635,182.519,23.2422,0,0.000885,0,0
0:1:48.141,183.285,23.3388,0,0.000885,0,0
0:1:48.648,184.806,23.5318,0,0.000885,0,0
0:1:49.152,185.629,23.6352,0,0.000885,0,0
0:1:49.649,186.977,23.8076,0,0.000885,0,0
0:1:50.146,187.39,23.8559,0,0.000885,0,0
0:1:50.643,187.973,23.9317,0,0.000885,0,0
0:1:51.140,189.383,24.111,0,0.000885,0,0
0:1:51.638,189.85,24.173,0,0.000885,0,0
0:1:52.136,191.202,24.3454,0,0.000885,0,0
0:1:52.641,191.905,24.435,0,0.000885,0,0
0:1:53.146,193.08,24.5867,0,0.000885,0,0
0:1:53.646,194.427,24.7522,0,0.000885,0,0
0:1:54.142,195.188,24.8556,0,0.000885,0,0
0:1:54.637,195.953,24.9521,0,0.000885,0,0
0:1:55.132,196.714,25.0487,0,0.000885,0,0
0:1:55.626,198.119,25.2279,0,0.000885,0,0
0:1:56.119,199.178,25.3589,0,0.000885,0,0
0:1:56.625,200.174,25.4899,0,0.000885,0,0
0:1:57.118,201.171,25.614,0,0.000885,0,0
0:1:57.626,201.642,25.6761,0,0.000885,0,0
0:1:58.130,202.639,25.8002,0,0.000885,0,0
0:1:58.633,204.102,25.9863,0,0.000885,0,0
0:1:59.132,204.809,26.076,0,0.000885,0,0
0:1:59.626,205.864,26.2139,0,0.000885,0,0
0:2:0.123,206.976,26.3518,0,0.000885,0,0
0:2:0.625,207.621,26.4345,0,0.000885,0,0
0:2:1.128,208.386,26.531,0,0.000885,0,0
0:2:1.622,209.146,26.6276,0,0.000885,0,0
0:2:2.115,210.027,26.7448,0,0.000885,0,0
0:2:2.617,210.908,26.8551,0,0.000885,0,0
0:2:3.119,211.259,26.8964,0,0.000885,0,0
0:2:3.623,212.02,26.993,0,0.000885,0,0
0:2:4.125,213.488,27.1791,0,0.000885,0,0
0:2:4.628,212.901,27.1102,0,0.000885,0,0
0:2:5.122,212.843,27.1033,0,0.000885,0,0
0:2:5.624,212.314,27.0343,0,0.000885,0,0
0:2:6.126,211.259,26.8964,0,0.000885,0,0
0:2:6.617,209.734,26.7034,0,0.000885,0,0
0:2:7.109,207.856,26.4621,0,0.000885,0,0
0:2:7.609,203.635,25.9243,0,0.000885,0,0
0:2:8.112,199.529,25.4072,0,0.000885,0,0
0:2:8.611,192.608,24.5247,0,0.000885,0,0
0:2:9.128,188.035,23.9386,0,0.000885,0,0
0:2:9.624,185.277,23.587,0,0.000885,0,0
0:2:10.117,181.817,23.1526,0,0.000885,0,0
0:2:10.612,179.117,22.8079,0,0.000885,0,0
0:2:11.109,177.182,22.5596,0,0.000885,0,0
0:2:11.616,174.014,22.1597,0,0.000885,0,0
0:2:12.112,170.029,21.6495,0,0.000885,0,0
0:2:12.616,165.042,21.0152,0,0.000885,0,0
0:2:13.124,158.824,20.2223,0,0.000885,0,0
0:2:13.556,151.026,19.2295,0,0.000885,0,0