File: DataFile2021-06-06_073306.csv
Test ID:,Date Tested:,Time:,Test Type:,Diameter Avg. (mm):,Cyl. Corr. Factor:,Height (mm):,Age (days):,Weight (kN):,Break Type:,Ramp Rate (MPa/s):,Load at Break (kN):,Stress at Break (MPa):
12,6/6/2021,07:33,Cylinder,100,1,200,0,13.39,3,0.24,336.71,42.87
Sample Time,Load (kN),Stress (MPa),Long. Strain,Trans. Strain,Chan1 Deflection (mm),Chan2 Deflection (mm)
0:0:7.192,5.10211,0.648107,0,0.000885,0,0
0:0:7.985,9.20782,1.17211,0,0.000885,0,0
0:0:8.781,8.79858,1.11695,0,0.000885,0,0
0:0:9.571,8.74076,1.11006,0,0.000885,0,0
0:0:10.368,10.3243,1.3169,0,0.000885,0,0
0:0:11.160,12.1392,1.54443,0,0.000885,0,0
0:0:11.959,14.3678,1.82711,0,0.000885,0,0
0:0:12.759,16.0714,2.04774,0,0.000885,0,0
0:0:13.570,18.1221,2.30974,0,0.000885,0,0
0:0:14.370,19.9414,2.53727,0,0.000885,0,0
0:0:15.166,21.1157,2.68896,0,0.000885,0,0
0:0:15.962,22.3479,2.84753,0,0.000885,0,0
0:0:16.755,24.1627,3.07506,0,0.000885,0,0
0:0:17.555,25.8041,3.2888,0,0.000885,0,0
0:0:18.367,27.3877,3.48875,0,0.000885,0,0
0:0:19.173,28.7978,3.66801,0,0.000885,0,0
0:0:19.963,30.6171,3.89554,0,0.000885,0,0
0:0:20.762,31.3199,3.98517,0,0.000885,0,0
0:0:21.559,33.1971,4.22649,0,0.000885,0,0
0:0:22.354,34.9541,4.45401,0,0.000885,0,0
0:0:23.161,36.7156,4.67465,0,0.000885,0,0
0:0:23.970,38.2992,4.87459,0,0.000885,0,0
0:0:24.770,39.4112,5.01938,0,0.000885,0,0
0:0:25.563,40.9948,5.21933,0,0.000885,0,0
0:0:26.362,42.5784,5.41928,0,0.000885,0,0
0:0:27.157,44.9849,5.72954,0,0.000885,0,0
0:0:27.968,46.7464,5.95018,0,0.000885,0,0
0:0:28.774,47.3914,6.03291,0,0.000885,0,0
0:0:29.572,49.3842,6.28802,0,0.000885,0,0
0:0:30.368,50.4962,6.43281,0,0.000885,0,0
0:0:31.162,52.1999,6.64655,0,0.000885,0,0
0:0:31.960,53.9569,6.86718,0,0.000885,0,0
0:0:32.763,54.9533,6.99818,0,0.000885,0,0
0:0:33.572,56.7148,7.21881,0,0.000885,0,0
0:0:34.374,58.7699,7.48081,0,0.000885,0,0
0:0:35.173,60.2334,7.66697,0,0.000885,0,0
0:0:35.967,61.5234,7.83244,0,0.000885,0,0
0:0:36.764,62.7555,7.99102,0,0.000885,0,0
0:0:37.562,65.2777,8.30818,0,0.000885,0,0
0:0:38.373,66.452,8.45987,0,0.000885,0,0
0:0:39.180,67.9777,8.65292,0,0.000885,0,0
0:0:39.973,69.6191,8.86666,0,0.000885,0,0
0:0:40.773,70.9669,9.03903,0,0.000885,0,0
0:0:41.565,72.3726,9.21829,0,0.000885,0,0
0:0:42.363,74.1919,9.44582,0,0.000885,0,0
0:0:43.169,75.9534,9.67334,0,0.000885,0,0
0:0:43.977,77.6526,9.88708,0,0.000885,0,0
0:0:44.775,79.0627,10.0663,0,0.000885,0,0
0:0:45.568,79.939,10.1767,0,0.000885,0,0
0:0:46.368,82.5812,10.5145,0,0.000885,0,0
0:0:47.160,83.8712,10.68,0,0.000885,0,0
0:0:47.971,85.2769,10.8592,0,0.000885,0,0
0:0:48.778,86.9183,11.0661,0,0.000885,0,0
0:0:49.573,88.1504,11.2247,0,0.000885,0,0
0:0:50.373,89.8541,11.4384,0,0.000885,0,0
0:0:51.164,91.9625,11.7073,0,0.000885,0,0
0:0:51.962,92.6075,11.79,0,0.000885,0,0
0:0:52.766,94.3112,12.0107,0,0.000885,0,0
0:0:53.574,96.304,12.2589,0,0.000885,0,0
0:0:54.374,97.5362,12.4175,0,0.000885,0,0
0:0:55.168,99.0619,12.6105,0,0.000885,0,0
0:0:55.967,101.584,12.9346,0,0.000885,0,0
0:0:56.760,102.523,13.0518,0,0.000885,0,0
0:0:57.560,103.813,13.2172,0,0.000885,0,0
0:0:58.371,105.512,13.431,0,0.000885,0,0
0:0:59.176,106.922,13.6103,0,0.000885,0,0
0:0:59.974,109.088,13.8929,0,0.000885,0,0
0:1:0.766,109.795,13.9826,0,0.000885,0,0
0:1:1.565,112.491,14.3204,0,0.000885,0,0
0:1:2.356,113.256,14.4169,0,0.000885,0,0
0:1:3.167,115.129,14.6583,0,0.000885,0,0
0:1:3.973,116.712,14.8582,0,0.000885,0,0
0:1:4.770,118.652,15.1064,0,0.000885,0,0
0:1:5.567,119.88,15.265,0,0.000885,0,0
0:1:6.359,121.819,15.5132,0,0.000885,0,0
0:1:7.158,122.873,15.6442,0,0.000885,0,0
0:1:7.961,124.399,15.8373,0,0.000885,0,0
0:1:8.770,126.214,16.0717,0,0.000885,0,0
0:1:9.571,127.388,16.2165,0,0.000885,0,0
0:1:10.368,129.15,16.444,0,0.000885,0,0
0:1:11.162,130.555,16.6233,0,0.000885,0,0
0:1:11.954,133.193,16.9611,0,0.000885,0,0
0:1:12.755,134.016,17.0645,0,0.000885,0,0
0:1:13.564,135.426,17.2438,0,0.000885,0,0
0:1:14.369,136.832,17.4231,0,0.000885,0,0
0:1:15.164,138.882,17.6851,0,0.000885,0,0
0:1:15.959,140.177,17.8505,0,0.000885,0,0
0:1:16.757,141.525,18.016,0,0.000885,0,0
0:1:17.557,142.988,18.2091,0,0.000885,0,0
0:1:18.368,144.928,18.4504,0,0.000885,0,0
0:1:19.169,146.8,18.6917,0,0.000885,0,0
0:1:19.969,148.446,18.8985,0,0.000885,0,0
0:1:20.760,149.736,19.064,0,0.000885,0,0
0:1:21.557,151.435,19.2846,0,0.000885,0,0
0:1:22.352,152.667,19.4363,0,0.000885,0,0
0:1:23.161,154.66,19.6914,0,0.000885,0,0
0:1:23.968,156.244,19.8914,0,0.000885,0,0
0:1:24.760,157.067,20.0017,0,0.000885,0,0
0:1:25.560,158.944,20.2361,0,0.000885,0,0
0:1:26.351,160.176,20.3947,0,0.000885,0,0
0:1:27.150,162.992,20.7532,0,0.000885,0,0
0:1:27.952,163.459,20.8153,0,0.000885,0,0
0:1:28.761,165.158,21.029,0,0.000885,0,0
0:1:29.563,167.329,21.3048,0,0.000885,0,0
0:1:30.359,168.681,21.4772,0,0.000885,0,0
0:1:31.154,169.793,21.622,0,0.000885,0,0
0:1:31.949,171.786,21.8702,0,0.000885,0,0
0:1:32.749,173.427,22.0839,0,0.000885,0,0
0:1:33.558,174.953,22.277,0,0.000885,0,0
0:1:34.365,176.479,22.47,0,0.000885,0,0
0:1:35.157,177.653,22.6217,0,0.000885,0,0
0:1:35.956,179.059,22.801,0,0.000885,0,0
0:1:36.750,181.056,23.0492,0,0.000885,0,0
0:1:37.558,182.577,23.2491,0,0.000885,0,0
0:1:38.371,184.575,23.4973,0,0.000885,0,0
0:1:39.174,185.864,23.6628,0,0.000885,0,0
0:1:39.970,187.212,23.8352,0,0.000885,0,0
0:1:40.762,188.912,24.0558,0,0.000885,0,0
0:1:41.561,190.264,24.2282,0,0.000885,0,0
0:1:42.353,191.963,24.4419,0,0.000885,0,0
0:1:43.161,193.724,24.6625,0,0.000885,0,0
0:1:43.960,194.837,24.8073,0,0.000885,0,0
0:1:44.751,196.184,24.9797,0,0.000885,0,0
0:1:45.551,198.119,25.2279,0,0.000885,0,0
0:1:46.350,200.117,25.4761,0,0.000885,0,0
0:1:47.151,201.931,25.7105,0,0.000885,0,0
0:1:47.956,203.399,25.8967,0,0.000885,0,0
0:1:48.760,204.925,26.0898,0,0.000885,0,0
0:1:49.553,206.099,26.2414,0,0.000885,0,0
0:1:50.356,207.563,26.4276,0,0.000885,0,0
0:1:51.154,209.382,26.662,0,0.000885,0,0
0:1:51.943,211.495,26.9309,0,0.000885,0,0
0:1:52.743,212.14,27.0137,0,0.000885,0,0
0:1:53.544,214.017,27.2481,0,0.000885,0,0
0:1:54.350,215.539,27.4411,0,0.000885,0,0
0:1:55.145,216.949,27.6204,0,0.000885,0,0
0:1:55.949,218.532,27.8272,0,0.000885,0,0
0:1:56.756,220.231,28.041,0,0.000885,0,0
0:1:57.549,221.521,28.2065,0,0.000885,0,0
0:1:58.354,223.399,28.4409,0,0.000885,0,0
0:1:59.150,225.276,28.6822,0,0.000885,0,0
0:1:59.953,226.099,28.7856,0,0.000885,0,0
0:2:0.748,227.74,28.9993,0,0.000885,0,0
0:2:1.550,229.03,29.1579,0,0.000885,0,0
0:2:2.351,231.494,29.4751,0,0.000885,0,0
0:2:3.156,233.314,29.7095,0,0.000885,0,0
0:2:3.956,234.368,29.8405,0,0.000885,0,0
0:2:4.752,235.894,30.0336,0,0.000885,0,0
0:2:5.556,237.477,30.2335,0,0.000885,0,0
0:2:6.354,238.767,30.399,0,0.000885,0,0
0:2:7.153,240.115,30.5714,0,0.000885,0,0
0:2:7.953,242.637,30.8954,0,0.000885,0,0
0:2:8.753,243.869,31.0471,0,0.000885,0,0
0:2:9.557,245.862,31.3022,0,0.000885,0,0
0:2:10.353,246.979,31.447,0,0.000885,0,0
0:2:11.157,248.5,31.64,0,0.000885,0,0
0:2:11.954,250.261,31.8676,0,0.000885,0,0
0:2:12.757,251.316,31.9986,0,0.000885,0,0
0:2:13.564,252.841,32.1916,0,0.000885,0,0
0:2:14.358,255.128,32.4812,0,0.000885,0,0
0:2:15.153,256.538,32.6605,0,0.000885,0,0
0:2:15.947,258.709,32.9363,0,0.000885,0,0
0:2:16.751,259.233,33.0052,0,0.000885,0,0
0:2:17.558,260.523,33.1707,0,0.000885,0,0
0:2:18.364,262.988,33.4878,0,0.000885,0,0
0:2:19.165,263.869,33.5982,0,0.000885,0,0
0:2:19.951,265.981,33.867,0,0.000885,0,0
0:2:20.754,267.565,34.067,0,0.000885,0,0
0:2:21.552,269.38,34.3014,0,0.000885,0,0
0:2:22.353,270.145,34.3979,0,0.000885,0,0
0:2:23.158,271.671,34.591,0,0.000885,0,0
0:2:23.958,273.606,34.8392,0,0.000885,0,0
0:2:24.756,275.131,35.0323,0,0.000885,0,0
0:2:25.555,276.831,35.246,0,0.000885,0,0
0:2:26.357,278.588,35.4735,0,0.000885,0,0
0:2:27.154,279.998,35.6528,0,0.000885,0,0
0:2:27.957,281.581,35.8527,0,0.000885,0,0
0:2:28.760,283.107,36.0458,0,0.000885,0,0
0:2:29.554,284.984,36.2871,0,0.000885,0,0
0:2:30.348,286.448,36.4733,0,0.000885,0,0
0:2:31.152,288.151,36.687,0,0.000885,0,0
0:2:31.958,288.796,36.7697,0,0.000885,0,0
0:2:32.754,291.198,37.08,0,0.000885,0,0
0:2:33.559,292.84,37.2868,0,0.000885,0,0
0:2:34.353,294.014,37.4385,0,0.000885,0,0
0:2:35.155,295.598,37.6385,0,0.000885,0,0
0:2:35.959,297.301,37.8522,0,0.000885,0,0
0:2:36.754,298.765,38.0384,0,0.000885,0,0
0:2:37.548,300.526,38.2659,0,0.000885,0,0
0:2:38.355,302.871,38.5624,0,0.000885,0,0
0:2:39.155,303.809,38.6796,0,0.000885,0,0
0:2:39.957,304.574,38.7761,0,0.000885,0,0
0:2:40.755,306.389,39.0105,0,0.000885,0,0
0:2:41.554,307.799,39.1898,0,0.000885,0,0
0:2:42.343,309.908,39.4587,0,0.000885,0,0
0:2:43.147,311.14,39.6173,0,0.000885,0,0
0:2:43.947,312.781,39.8241,0,0.000885,0,0
0:2:44.755,314.249,40.0103,0,0.000885,0,0
0:2:45.558,315.775,40.2033,0,0.000885,0,0
0:2:46.355,317.301,40.3964,0,0.000885,0,0
0:2:47.156,319.409,40.6653,0,0.000885,0,0
0:2:47.957,321.055,40.879,0,0.000885,0,0
0:2:48.757,322.345,41.0445,0,0.000885,0,0
0:2:49.560,323.515,41.1893,0,0.000885,0,0
0:2:50.358,324.689,41.341,0,0.000885,0,0
0:2:51.160,326.037,41.5133,0,0.000885,0,0
0:2:51.955,327.741,41.7271,0,0.000885,0,0
0:2:52.760,329.969,42.0098,0,0.000885,0,0
0:2:53.566,331.846,42.2511,0,0.000885,0,0
0:2:54.365,333.31,42.4372,0,0.000885,0,0
0:2:55.155,334.013,42.5269,0,0.000885,0,0
0:2:55.955,335.245,42.6854,0,0.000885,0,0
0:2:56.757,337.122,42.9268,0,0.000885,0,0
0:2:57.558,334.835,42.6303,0,0.000885,0,0
0:2:58.360,331.081,42.1545,0,0.000885,0,0
0:2:59.162,322.345,41.0445,0,0.000885,0,0
0:2:59.951,295.073,37.5695,0,0.000885,0,0
0:3:0.758,264.104,33.6257,0,0.000885,0,0
0:3:1.200,244.572,31.1367,0,0.000885,0,0