File: DataFile2021-07-28_104710.csv
Test ID:,Date Tested:,Time:,Test Type:,Diameter Avg. (mm):,Cyl. Corr. Factor:,Height (mm):,Age (days):,Weight (kN):,Break Type:,Ramp Rate (MPa/s):,Load at Break (kN):,Stress at Break (MPa):
12,7/28/2021,10:47,Cylinder,100,1,200,0,13.69,3,0.35,1286.43,163.79
Sample Time,Load (kN),Stress (MPa),Long. Strain,Trans. Strain,Chan1 Deflection (mm),Chan2 Deflection (mm)
0:0:13.571,5.8672,0.744634,0,0.000885,0,0
0:0:15.575,10.0307,1.27553,0,0.000885,0,0
0:0:17.570,15.7778,2.00637,0,0.000885,0,0
0:0:19.584,21.0534,2.68206,0,0.000885,0,0
0:0:21.582,27.0363,3.44048,0,0.000885,0,0
0:0:23.572,33.1971,4.22649,0,0.000885,0,0
0:0:25.585,38.6506,4.92286,0,0.000885,0,0
0:0:27.576,44.3977,5.6537,0,0.000885,0,0
0:0:29.578,49.1484,6.26044,0,0.000885,0,0
0:0:31.584,54.722,6.9706,0,0.000885,0,0
0:0:33.573,60.5848,7.71523,0,0.000885,0,0
0:0:35.584,65.7492,8.37024,0,0.000885,0,0
0:0:37.576,70.6155,8.99076,0,0.000885,0,0
0:0:39.582,77.0076,9.80434,0,0.000885,0,0
0:0:41.578,82.2877,10.48,0,0.000885,0,0
0:0:43.570,87.9769,11.204,0,0.000885,0,0
0:0:45.585,93.1369,11.859,0,0.000885,0,0
0:0:47.577,98.5326,12.5485,0,0.000885,0,0
0:0:49.587,104.458,13.3,0,0.000885,0,0
0:0:51.594,109.675,13.9619,0,0.000885,0,0
0:0:53.582,114.662,14.5962,0,0.000885,0,0
0:0:55.596,120.996,15.4029,0,0.000885,0,0
0:0:57.584,126.392,16.0924,0,0.000885,0,0
0:0:59.592,131.845,16.7887,0,0.000885,0,0
0:1:1.589,137.183,17.4644,0,0.000885,0,0
0:1:3.581,142.93,18.1953,0,0.000885,0,0
0:1:5.597,148.446,18.8985,0,0.000885,0,0
0:1:7.588,153.255,19.5122,0,0.000885,0,0
0:1:9.588,159.295,20.2844,0,0.000885,0,0
0:1:11.591,164.749,20.9739,0,0.000885,0,0
0:1:13.580,170.029,21.6495,0,0.000885,0,0
0:1:15.594,176.243,22.4424,0,0.000885,0,0
0:1:17.583,180.878,23.0285,0,0.000885,0,0
0:1:19.589,186.452,23.7386,0,0.000885,0,0
0:1:21.589,191.905,24.435,0,0.000885,0,0
0:1:23.574,198.004,25.2072,0,0.000885,0,0
0:1:25.586,203.399,25.8967,0,0.000885,0,0
0:1:27.571,208.679,26.5724,0,0.000885,0,0
0:1:29.581,214.369,27.2963,0,0.000885,0,0
0:1:31.568,220.289,28.0479,0,0.000885,0,0
0:1:33.572,224.924,28.6408,0,0.000885,0,0
0:1:35.570,230.204,29.3096,0,0.000885,0,0
0:1:37.578,235.951,30.0405,0,0.000885,0,0
0:1:39.571,242.05,30.8196,0,0.000885,0,0
0:1:41.561,246.859,31.4332,0,0.000885,0,0
0:1:43.578,251.961,32.0813,0,0.000885,0,0
0:1:45.585,258.588,32.9225,0,0.000885,0,0
0:1:47.567,263.926,33.605,0,0.000885,0,0
0:1:49.560,269.028,34.2532,0,0.000885,0,0
0:1:51.563,274.776,34.984,0,0.000885,0,0
0:1:53.567,279.526,35.5907,0,0.000885,0,0
0:1:55.579,285.981,36.4112,0,0.000885,0,0
0:1:57.573,291.083,37.0593,0,0.000885,0,0
0:1:59.573,296.656,37.7695,0,0.000885,0,0
0:2:1.580,301.99,38.4521,0,0.000885,0,0
0:2:3.584,307.154,39.1071,0,0.000885,0,0
0:2:5.582,313.426,39.9069,0,0.000885,0,0
0:2:7.579,318.591,40.5619,0,0.000885,0,0
0:2:9.571,323.928,41.2444,0,0.000885,0,0
0:2:11.572,329.088,41.8994,0,0.000885,0,0
0:2:13.567,335.013,42.6579,0,0.000885,0,0
0:2:15.574,341.054,43.4232,0,0.000885,0,0
0:2:17.579,345.627,44.0092,0,0.000885,0,0
0:2:19.584,351.725,44.7814,0,0.000885,0,0
0:2:21.581,357.299,45.4916,0,0.000885,0,0
0:2:23.575,362.343,46.1328,0,0.000885,0,0
0:2:25.576,367.33,46.7671,0,0.000885,0,0
0:2:27.583,374.247,47.6497,0,0.000885,0,0
0:2:29.574,378.295,48.1668,0,0.000885,0,0
0:2:31.564,384.513,48.9597,0,0.000885,0,0
0:2:33.567,389.38,49.5802,0,0.000885,0,0
0:2:35.585,395.598,50.3662,0,0.000885,0,0
0:2:37.586,400.994,51.0557,0,0.000885,0,0
0:2:39.585,405.86,51.6762,0,0.000885,0,0
0:2:41.577,412.194,52.4829,0,0.000885,0,0
0:2:43.583,417.826,53.1999,0,0.000885,0,0
0:2:45.582,423.515,53.9239,0,0.000885,0,0
0:2:47.573,427.857,54.4755,0,0.000885,0,0
0:2:49.556,433.662,55.2132,0,0.000885,0,0
0:2:51.546,439.173,55.9165,0,0.000885,0,0
0:2:53.517,444.924,56.6473,0,0.000885,0,0
0:2:55.515,450.027,57.3023,0,0.000885,0,0
0:2:57.489,455.889,58.047,0,0.000885,0,0
0:2:59.488,461.579,58.7709,0,0.000885,0,0
0:3:1.493,466.449,59.3914,0,0.000885,0,0
0:3:3.466,472.312,60.1361,0,0.000885,0,0
0:3:5.464,477.592,60.8118,0,0.000885,0,0
0:3:7.439,482.988,61.4943,0,0.000885,0,0
0:3:9.432,488.499,62.1976,0,0.000885,0,0
0:3:11.416,494.015,62.9009,0,0.000885,0,0
0:3:13.395,499.117,63.549,0,0.000885,0,0
0:3:15.399,504.922,64.2867,0,0.000885,0,0
0:3:17.375,510.611,65.0107,0,0.000885,0,0
0:3:19.380,516.301,65.7346,0,0.000885,0,0
0:3:21.380,521.051,66.3414,0,0.000885,0,0
0:3:23.383,526.914,67.086,0,0.000885,0,0
0:3:25.387,532.723,67.8306,0,0.000885,0,0
0:3:27.379,537.768,68.4718,0,0.000885,0,0
0:3:29.380,543.688,69.2234,0,0.000885,0,0
0:3:31.379,549.32,69.9404,0,0.000885,0,0
0:3:33.377,554.422,70.5885,0,0.000885,0,0
0:3:35.375,559.996,71.2987,0,0.000885,0,0
0:3:37.382,566.036,72.0709,0,0.000885,0,0
0:3:39.384,570.845,72.6845,0,0.000885,0,0
0:3:41.381,576.476,73.4016,0,0.000885,0,0
0:3:43.397,582.223,74.1324,0,0.000885,0,0
0:3:45.399,587.445,74.7943,0,0.000885,0,0
0:3:47.382,592.961,75.4976,0,0.000885,0,0
0:3:49.378,598.126,76.1526,0,0.000885,0,0
0:3:51.379,603.762,76.8765,0,0.000885,0,0
0:3:53.362,609.104,77.5522,0,0.000885,0,0
0:3:55.373,615.091,78.3175,0,0.000885,0,0
0:3:57.378,620.198,78.9657,0,0.000885,0,0
0:3:59.391,625.771,79.6758,0,0.000885,0,0
0:4:1.383,630.998,80.3377,0,0.000885,0,0
0:4:3.377,636.576,81.0479,0,0.000885,0,0
0:4:5.388,642.443,81.7994,0,0.000885,0,0
0:4:7.382,647.786,82.482,0,0.000885,0,0
0:4:9.396,652.777,83.1163,0,0.000885,0,0
0:4:11.389,659.115,83.923,0,0.000885,0,0
0:4:13.376,664.809,84.6469,0,0.000885,0,0
0:4:15.396,669.738,85.2744,0,0.000885,0,0
0:4:17.393,675.667,86.0259,0,0.000885,0,0
0:4:19.400,680.538,86.6464,0,0.000885,0,0
0:4:21.401,686.645,87.4255,0,0.000885,0,0
0:4:23.385,692.045,88.115,0,0.000885,0,0
0:4:25.396,697.325,88.7838,0,0.000885,0,0
0:4:27.390,702.374,89.4319,0,0.000885,0,0
0:4:29.386,708.539,90.211,0,0.000885,0,0
0:4:31.385,713.468,90.8384,0,0.000885,0,0
0:4:33.380,719.575,91.6175,0,0.000885,0,0
0:4:35.389,724.504,92.245,0,0.000885,0,0
0:4:37.396,730.198,92.9689,0,0.000885,0,0
0:4:39.397,735.598,93.6584,0,0.000885,0,0
0:4:41.391,740.94,94.341,0,0.000885,0,0
0:4:43.377,746.985,95.1063,0,0.000885,0,0
0:4:45.389,752.328,95.7889,0,0.000885,0,0
0:4:47.383,757.612,96.4645,0,0.000885,0,0
0:4:49.402,763.248,97.1816,0,0.000885,0,0
0:4:51.404,769.293,97.9469,0,0.000885,0,0
0:4:53.397,774.284,98.5812,0,0.000885,0,0
0:4:55.414,780.209,99.3397,0,0.000885,0,0
0:4:57.401,785.378,99.9947,0,0.000885,0,0
0:4:59.413,790.778,100.684,0,0.000885,0,0
0:5:1.408,796.41,101.401,0,0.000885,0,0
0:5:3.403,801.93,102.104,0,0.000885,0,0
0:5:5.414,807.094,102.759,0,0.000885,0,0
0:5:7.402,813.139,103.532,0,0.000885,0,0
0:5:9.398,818.482,104.214,0,0.000885,0,0
0:5:11.399,823.708,104.876,0,0.000885,0,0
0:5:13.402,828.988,105.552,0,0.000885,0,0
0:5:15.412,834.744,106.283,0,0.000885,0,0
0:5:17.393,840.554,107.02,0,0.000885,0,0
0:5:19.395,845.838,107.696,0,0.000885,0,0
0:5:21.391,851.176,108.379,0,0.000885,0,0
0:5:23.386,856.403,109.041,0,0.000885,0,0
0:5:25.406,862.096,109.765,0,0.000885,0,0
0:5:27.389,867.612,110.468,0,0.000885,0,0
0:5:29.390,873.133,111.171,0,0.000885,0,0
0:5:31.402,878.181,111.812,0,0.000885,0,0
0:5:33.394,884.106,112.571,0,0.000885,0,0
0:5:35.406,890.036,113.322,0,0.000885,0,0
0:5:37.403,895.614,114.032,0,0.000885,0,0
0:5:39.400,901.014,114.722,0,0.000885,0,0
0:5:41.396,905.943,115.349,0,0.000885,0,0
0:5:43.392,911.814,116.094,0,0.000885,0,0
0:5:45.422,917.392,116.804,0,0.000885,0,0
0:5:47.409,922.966,117.514,0,0.000885,0,0
0:5:49.410,928.602,118.231,0,0.000885,0,0
0:5:51.402,934.002,118.921,0,0.000885,0,0
0:5:53.405,939.402,119.61,0,0.000885,0,0
0:5:55.419,944.802,120.293,0,0.000885,0,0
0:5:57.405,950.323,120.996,0,0.000885,0,0
0:5:59.411,956.132,121.741,0,0.000885,0,0
0:6:1.411,961.065,122.368,0,0.000885,0,0
0:6:3.406,966.817,123.099,0,0.000885,0,0
0:6:5.414,971.923,123.747,0,0.000885,0,0
0:6:7.398,978.084,124.533,0,0.000885,0,0
0:6:9.403,982.959,125.154,0,0.000885,0,0
0:6:11.404,988.768,125.891,0,0.000885,0,0
0:6:13.389,994.347,126.602,0,0.000885,0,0
0:6:15.413,1000.28,127.36,0,0.000885,0,0
0:6:17.397,1004.68,127.918,0,0.000885,0,0
0:6:19.398,1010.66,128.684,0,0.000885,0,0
0:6:21.398,1016.06,129.366,0,0.000885,0,0
0:6:23.391,1021.76,130.097,0,0.000885,0,0
0:6:25.401,1027.57,130.835,0,0.000885,0,0
0:6:27.386,1032.33,131.442,0,0.000885,0,0
0:6:29.388,1038.61,132.241,0,0.000885,0,0
0:6:31.385,1043.83,132.903,0,0.000885,0,0
0:6:33.372,1049.29,133.6,0,0.000885,0,0
0:6:35.384,1054.57,134.275,0,0.000885,0,0
0:6:37.372,1060.09,134.972,0,0.000885,0,0
0:6:39.370,1065.19,135.627,0,0.000885,0,0
0:6:41.369,1071.01,136.365,0,0.000885,0,0
0:6:43.353,1076.23,137.033,0,0.000885,0,0
0:6:45.365,1082.45,137.819,0,0.000885,0,0
0:6:47.351,1088.03,138.529,0,0.000885,0,0
0:6:49.348,1093.19,139.191,0,0.000885,0,0
0:6:51.352,1098.42,139.853,0,0.000885,0,0
0:6:53.337,1103.94,140.557,0,0.000885,0,0
0:6:55.348,1109.69,141.287,0,0.000885,0,0
0:6:57.334,1115.09,141.977,0,0.000885,0,0
0:6:59.337,1120.61,142.68,0,0.000885,0,0
0:7:1.331,1126.42,143.418,0,0.000885,0,0
0:7:3.320,1131.76,144.1,0,0.000885,0,0
0:7:5.332,1136.87,144.749,0,0.000885,0,0
0:7:7.319,1142.8,145.507,0,0.000885,0,0
0:7:9.315,1147.73,146.134,0,0.000885,0,0
0:7:11.316,1153.89,146.92,0,0.000885,0,0
0:7:13.298,1158.58,147.513,0,0.000885,0,0
0:7:15.317,1164.98,148.327,0,0.000885,0,0
0:7:17.312,1169.74,148.934,0,0.000885,0,0
0:7:19.304,1174.73,149.568,0,0.000885,0,0
0:7:21.305,1180.89,150.354,0,0.000885,0,0
0:7:23.300,1186.7,151.099,0,0.000885,0,0
0:7:25.313,1191.63,151.726,0,0.000885,0,0
0:7:27.305,1197.74,152.498,0,0.000885,0,0
0:7:29.305,1202.79,153.146,0,0.000885,0,0
0:7:31.301,1208.66,153.891,0,0.000885,0,0
0:7:33.299,1214.47,154.629,0,0.000885,0,0
0:7:35.307,1218.87,155.194,0,0.000885,0,0
0:7:37.304,1224.86,155.953,0,0.000885,0,0
0:7:39.308,1230.49,156.67,0,0.000885,0,0
0:7:41.310,1236.42,157.428,0,0.000885,0,0
0:7:43.303,1241.35,158.055,0,0.000885,0,0
0:7:45.322,1246.99,158.772,0,0.000885,0,0
0:7:47.319,1252.5,159.476,0,0.000885,0,0
0:7:49.322,1258.49,160.234,0,0.000885,0,0
0:7:51.317,1262.72,160.772,0,0.000885,0,0
0:7:53.296,1265.77,161.165,0,0.000885,0,0
0:7:55.305,1275.1,162.351,0,0.000885,0,0
0:7:57.289,1280.56,163.047,0,0.000885,0,0
0:7:59.292,1284.32,163.523,0,0.000885,0,0
0:8:0.748,1140.39,145.197,0,0.000885,0,0