File: DataFile2021-06-29_044659.csv
Test ID:,Date Tested:,Time:,Test Type:,Width (mm):,Depth (mm):,Height (mm):,Age (days):,Weight (kN):,Ramp Rate (MPa/s):,Load at Break (kN):,Stress at Break (MPa):
12,6/29/2021,04:46,Cube,100,100,100,7,8.37,0.02,33.37,3.34
Sample Time,Load (kN),Stress (MPa),Long. Strain,Trans. Strain,Chan1 Deflection (mm),Chan2 Deflection (mm)
0:0:13.803,9.26565,0.923897,0,0.000885,0,0
0:0:14.096,10.7914,1.08248,0,0.000885,0,0
0:0:14.390,10.6179,1.06179,0,0.000885,0,0
0:0:14.681,10.3821,1.04111,0,0.000885,0,0
0:0:14.978,10.8492,1.08248,0,0.000885,0,0
0:0:15.279,10.3821,1.04111,0,0.000885,0,0
0:0:15.583,10.5556,1.0549,0,0.000885,0,0
0:0:15.877,10.9693,1.09627,0,0.000885,0,0
0:0:16.177,10.907,1.08937,0,0.000885,0,0
0:0:16.471,11.1428,1.11695,0,0.000885,0,0
0:0:16.770,11.2629,1.12385,0,0.000885,0,0
0:0:17.078,11.6143,1.15832,0,0.000885,0,0
0:0:17.379,12.375,1.23416,0,0.000885,0,0
0:0:17.671,12.4328,1.24106,0,0.000885,0,0
0:0:17.979,12.5529,1.25485,0,0.000885,0,0
0:0:18.279,13.3135,1.33069,0,0.000885,0,0
0:0:18.576,13.5493,1.35827,0,0.000885,0,0
0:0:18.878,13.785,1.37895,0,0.000885,0,0
0:0:19.173,14.7814,1.47548,0,0.000885,0,0
0:0:19.478,14.7814,1.47548,0,0.000885,0,0
0:0:19.772,15.0127,1.50306,0,0.000885,0,0
0:0:20.072,15.1907,1.51685,0,0.000885,0,0
0:0:20.369,15.8935,1.59269,0,0.000885,0,0
0:0:20.666,16.0136,1.59958,0,0.000885,0,0
0:0:20.969,16.4807,1.64785,0,0.000885,0,0
0:0:21.271,16.7742,1.67543,0,0.000885,0,0
0:0:21.568,16.8899,1.68922,0,0.000885,0,0
0:0:21.870,17.4192,1.74437,0,0.000885,0,0
0:0:22.177,17.7128,1.77195,0,0.000885,0,0
0:0:22.481,18.0064,1.79953,0,0.000885,0,0
0:0:22.782,18.1799,1.82022,0,0.000885,0,0
0:0:23.080,18.4735,1.84779,0,0.000885,0,0
0:0:23.379,18.4735,1.84779,0,0.000885,0,0
0:0:23.673,18.767,1.87537,0,0.000885,0,0
0:0:23.967,19.0028,1.90295,0,0.000885,0,0
0:0:24.266,19.4699,1.94432,0,0.000885,0,0
0:0:24.566,19.5321,1.95122,0,0.000885,0,0
0:0:24.863,20.1193,2.01327,0,0.000885,0,0
0:0:25.160,19.8836,1.98569,0,0.000885,0,0
0:0:25.458,20.3506,2.03395,0,0.000885,0,0
0:0:25.769,20.3506,2.03395,0,0.000885,0,0
0:0:26.065,20.88,2.08911,0,0.000885,0,0
0:0:26.368,21.6406,2.16495,0,0.000885,0,0
0:0:26.673,21.8185,2.17874,0,0.000885,0,0
0:0:26.979,22.1121,2.21322,0,0.000885,0,0
0:0:27.282,22.2856,2.22701,0,0.000885,0,0
0:0:27.578,22.4635,2.24769,0,0.000885,0,0
0:0:27.877,22.9929,2.29595,0,0.000885,0,0
0:0:28.173,23.1663,2.31664,0,0.000885,0,0
0:0:28.477,23.8113,2.37869,0,0.000885,0,0
0:0:28.780,24.0471,2.40627,0,0.000885,0,0
0:0:29.085,24.1627,2.41317,0,0.000885,0,0
0:0:29.383,24.6343,2.46143,0,0.000885,0,0
0:0:29.683,24.6921,2.46832,0,0.000885,0,0
0:0:29.981,25.2214,2.52348,0,0.000885,0,0
0:0:30.279,25.7463,2.57174,0,0.000885,0,0
0:0:30.574,25.9821,2.59932,0,0.000885,0,0
0:0:30.880,26.16,2.61311,0,0.000885,0,0
0:0:31.174,26.4536,2.64759,0,0.000885,0,0
0:0:31.479,26.6849,2.66827,0,0.000885,0,0
0:0:31.784,27.0986,2.70964,0,0.000885,0,0
0:0:32.078,27.0986,2.70964,0,0.000885,0,0
0:0:32.381,27.7436,2.77169,0,0.000885,0,0
0:0:32.678,28.2684,2.82685,0,0.000885,0,0
0:0:32.986,28.562,2.85443,0,0.000885,0,0
0:0:33.283,28.2106,2.81996,0,0.000885,0,0
0:0:33.586,28.6199,2.86132,0,0.000885,0,0
0:0:33.879,28.9134,2.8889,0,0.000885,0,0
0:0:34.184,29.3271,2.93027,0,0.000885,0,0
0:0:34.485,29.385,2.93717,0,0.000885,0,0
0:0:34.784,30.2034,3.0199,0,0.000885,0,0
0:0:35.081,30.3235,3.03369,0,0.000885,0,0
0:0:35.378,30.1456,3.01301,0,0.000885,0,0
0:0:35.674,30.6749,3.06817,0,0.000885,0,0
0:0:35.978,31.0842,3.10954,0,0.000885,0,0
0:0:36.271,31.0263,3.10264,0,0.000885,0,0
0:0:36.583,31.2621,3.12333,0,0.000885,0,0
0:0:36.880,31.2043,3.12333,0,0.000885,0,0
0:0:37.183,32.1384,3.21296,0,0.000885,0,0
0:0:37.483,32.0806,3.20606,0,0.000885,0,0
0:0:37.779,32.3742,3.24054,0,0.000885,0,0
0:0:38.081,33.0191,3.30259,0,0.000885,0,0
0:0:38.375,33.6063,3.35775,0,0.000885,0,0
0:0:38.679,33.7842,3.37843,0,0.000885,0,0
0:0:38.983,33.5485,3.35775,0,0.000885,0,0
0:0:39.275,33.4907,3.35085,0,0.000885,0,0
0:0:39.572,32.9035,3.2888,0,0.000885,0,0
0:0:39.872,32.8457,3.2819,0,0.000885,0,0
0:0:40.169,33.077,3.30948,0,0.000885,0,0
0:0:40.467,32.7878,3.2819,0,0.000885,0,0
0:0:40.764,32.2007,3.21985,0,0.000885,0,0
0:0:41.067,31.6135,3.16469,0,0.000885,0,0
0:0:41.371,31.2621,3.12333,0,0.000885,0,0
0:0:41.672,30.1456,3.01301,0,0.000885,0,0
0:0:41.968,28.6821,2.86822,0,0.000885,0,0
0:0:42.282,27.3299,2.73032,0,0.000885,0,0
0:0:42.585,27.1564,2.71653,0,0.000885,0,0
0:0:42.880,26.7427,2.67517,0,0.000885,0,0
0:0:43.180,26.5114,2.64759,0,0.000885,0,0
0:0:43.476,26.6271,2.66138,0,0.000885,0,0
0:0:43.787,25.7463,2.57174,0,0.000885,0,0
0:0:44.084,24.8077,2.48211,0,0.000885,0,0
0:0:44.384,23.7535,2.37869,0,0.000885,0,0
0:0:44.682,22.1121,2.21322,0,0.000885,0,0
0:0:44.980,21.0534,2.1029,0,0.000885,0,0
0:0:45.275,21.4093,2.13737,0,0.000885,0,0
0:0:45.572,21.347,2.13737,0,0.000885,0,0
0:0:45.884,21.347,2.13737,0,0.000885,0,0
0:0:46.179,21.4093,2.13737,0,0.000885,0,0
0:0:46.470,21.7029,2.17185,0,0.000885,0,0
0:0:46.782,21.7607,2.17874,0,0.000885,0,0
0:0:47.079,21.992,2.19943,0,0.000885,0,0
0:0:47.389,22.4057,2.2408,0,0.000885,0,0
0:0:47.685,22.2856,2.22701,0,0.000885,0,0
0:0:47.975,22.2278,2.22011,0,0.000885,0,0
0:0:48.280,21.9342,2.19253,0,0.000885,0,0
0:0:48.585,21.992,2.19943,0,0.000885,0,0
0:0:48.885,21.7607,2.17874,0,0.000885,0,0
0:0:49.181,22.2856,2.22701,0,0.000885,0,0
0:0:49.480,22.2278,2.22011,0,0.000885,0,0
0:0:49.780,22.3479,2.2339,0,0.000885,0,0
0:0:50.075,22.0543,2.20632,0,0.000885,0,0
0:0:50.373,21.8185,2.17874,0,0.000885,0,0
0:0:50.670,21.9342,2.19253,0,0.000885,0,0
0:0:50.970,21.992,2.19943,0,0.000885,0,0
0:0:51.274,22.2856,2.22701,0,0.000885,0,0
0:0:51.580,22.2278,2.22011,0,0.000885,0,0
0:0:51.881,21.8764,2.18564,0,0.000885,0,0
0:0:52.186,22.2278,2.22011,0,0.000885,0,0
0:0:52.487,22.2278,2.22011,0,0.000885,0,0
0:0:52.784,22.1121,2.21322,0,0.000885,0,0
0:0:53.084,21.992,2.19943,0,0.000885,0,0
0:0:53.386,22.3479,2.2339,0,0.000885,0,0
0:0:53.682,22.2278,2.22011,0,0.000885,0,0
0:0:53.990,21.9342,2.19253,0,0.000885,0,0
0:0:54.288,22.1699,2.22011,0,0.000885,0,0
0:0:54.588,21.7029,2.17185,0,0.000885,0,0
0:0:54.886,21.4093,2.13737,0,0.000885,0,0
0:0:55.184,21.5249,2.15116,0,0.000885,0,0
0:0:55.481,21.5249,2.15116,0,0.000885,0,0
0:0:55.787,21.6406,2.16495,0,0.000885,0,0
0:0:56.076,21.8764,2.18564,0,0.000885,0,0
0:0:56.373,22.0543,2.20632,0,0.000885,0,0
0:0:56.673,22.2856,2.22701,0,0.000885,0,0
0:0:56.976,22.4057,2.2408,0,0.000885,0,0
0:0:57.282,22.2856,2.22701,0,0.000885,0,0
0:0:57.582,22.6993,2.26838,0,0.000885,0,0
0:0:57.877,22.8149,2.28216,0,0.000885,0,0
0:0:58.176,22.7571,2.27527,0,0.000885,0,0
0:0:58.485,22.6993,2.26838,0,0.000885,0,0
0:0:58.786,22.637,2.26148,0,0.000885,0,0
0:0:59.088,22.5792,2.26148,0,0.000885,0,0
0:0:59.384,22.3479,2.2339,0,0.000885,0,0
0:0:59.681,22.7571,2.27527,0,0.000885,0,0
0:0:59.983,22.5792,2.26148,0,0.000885,0,0
0:1:0.277,22.8149,2.28216,0,0.000885,0,0
0:1:0.573,22.5213,2.25459,0,0.000885,0,0
0:1:0.871,22.3479,2.2339,0,0.000885,0,0
0:1:1.173,22.3479,2.2339,0,0.000885,0,0
0:1:1.470,22.1699,2.22011,0,0.000885,0,0
0:1:1.768,22.1699,2.22011,0,0.000885,0,0
0:1:2.073,22.7571,2.27527,0,0.000885,0,0
0:1:2.388,22.4635,2.24769,0,0.000885,0,0
0:1:2.689,22.5792,2.26148,0,0.000885,0,0
0:1:2.985,22.5792,2.26148,0,0.000885,0,0
0:1:3.285,22.7571,2.27527,0,0.000885,0,0
0:1:3.582,22.4057,2.2408,0,0.000885,0,0
0:1:3.881,22.4057,2.2408,0,0.000885,0,0
0:1:4.177,22.4057,2.2408,0,0.000885,0,0
0:1:4.476,22.1699,2.22011,0,0.000885,0,0
0:1:4.775,21.7607,2.17874,0,0.000885,0,0
0:1:5.072,21.2892,2.13048,0,0.000885,0,0
0:1:5.369,21.4671,2.14427,0,0.000885,0,0
0:1:5.666,21.347,2.13737,0,0.000885,0,0
0:1:5.966,21.7029,2.17185,0,0.000885,0,0
0:1:6.269,21.1157,2.1098,0,0.000885,0,0
0:1:6.565,21.347,2.13737,0,0.000885,0,0
0:1:6.874,21.1157,2.1098,0,0.000885,0,0
0:1:7.171,20.9378,2.09601,0,0.000885,0,0
0:1:7.484,20.8221,2.08222,0,0.000885,0,0
0:1:7.788,20.4707,2.04774,0,0.000885,0,0
0:1:8.090,20.4084,2.04085,0,0.000885,0,0
0:1:8.390,20.1193,2.01327,0,0.000885,0,0
0:1:8.688,19.5321,1.95122,0,0.000885,0,0
0:1:8.987,19.5321,1.95122,0,0.000885,0,0
0:1:9.284,19.6478,1.96501,0,0.000885,0,0
0:1:9.585,19.5321,1.95122,0,0.000885,0,0
0:1:9.882,18.8871,1.88916,0,0.000885,0,0
0:1:10.178,18.945,1.89606,0,0.000885,0,0
0:1:10.474,18.8871,1.88916,0,0.000885,0,0
0:1:10.772,18.4735,1.84779,0,0.000885,0,0
0:1:11.083,18.4156,1.8409,0,0.000885,0,0
0:1:11.386,18.0642,1.80643,0,0.000885,0,0
0:1:11.678,17.4192,1.74437,0,0.000885,0,0
0:1:11.982,17.01,1.70301,0,0.000885,0,0
0:1:12.148,17.1835,1.71679,0,0.000885,0,0