File: DataFile2021-06-07_070640.csv
Test ID:,Date Tested:,Time:,Test Type:,Diameter Avg. (mm):,Cyl. Corr. Factor:,Height (mm):,Age (days):,Weight (kN):,Break Type:,Ramp Rate (MPa/s):,Load at Break (kN):,Stress at Break (MPa):
12,6/7/2021,07:06,Cylinder,100,1,200,0,3.6,4,0.24,390.02,49.66
Sample Time,Load (kN),Stress (MPa),Long. Strain,Trans. Strain,Chan1 Deflection (mm),Chan2 Deflection (mm)
0:0:22.031,8.03349,1.02042,0,0.000885,0,0
0:0:22.925,13.6071,1.73058,0,0.000885,0,0
0:0:23.840,13.0778,1.66853,0,0.000885,0,0
0:0:24.730,12.3171,1.56511,0,0.000885,0,0
0:0:25.630,12.4906,1.59269,0,0.000885,0,0
0:0:26.536,13.4292,1.7099,0,0.000885,0,0
0:0:27.439,14.7814,1.88227,0,0.000885,0,0
0:0:28.349,16.7742,2.13737,0,0.000885,0,0
0:0:29.251,18.945,2.41317,0,0.000885,0,0
0:0:30.148,21.347,2.71653,0,0.000885,0,0
0:0:31.046,23.5756,2.99922,0,0.000885,0,0
0:0:31.938,24.7499,3.1509,0,0.000885,0,0
0:0:32.844,26.7427,3.40601,0,0.000885,0,0
0:0:33.750,27.917,3.55769,0,0.000885,0,0
0:0:34.650,29.9098,3.80591,0,0.000885,0,0
0:0:35.545,31.4934,4.01275,0,0.000885,0,0
0:0:36.438,33.3706,4.24717,0,0.000885,0,0
0:0:37.338,35.2477,4.48849,0,0.000885,0,0
0:0:38.250,36.8313,4.68843,0,0.000885,0,0
0:0:39.151,38.5349,4.90907,0,0.000885,0,0
0:0:40.044,40.7057,5.18486,0,0.000885,0,0
0:0:40.942,41.9957,5.34344,0,0.000885,0,0
0:0:41.840,43.6371,5.55717,0,0.000885,0,0
0:0:42.741,46.1014,5.86744,0,0.000885,0,0
0:0:43.648,47.1556,6.00533,0,0.000885,0,0
0:0:44.548,49.1484,6.26044,0,0.000885,0,0
0:0:45.445,50.6163,6.4466,0,0.000885,0,0
0:0:46.339,52.9605,6.74307,0,0.000885,0,0
0:0:47.232,54.4863,6.93613,0,0.000885,0,0
0:0:48.143,56.657,7.21192,0,0.000885,0,0
0:0:49.049,58.1827,7.40497,0,0.000885,0,0
0:0:49.942,59.8241,7.61871,0,0.000885,0,0
0:0:50.836,61.6435,7.84623,0,0.000885,0,0
0:0:51.735,63.4005,8.07376,0,0.000885,0,0
0:0:52.648,65.162,8.29439,0,0.000885,0,0
0:0:53.556,66.6877,8.48745,0,0.000885,0,0
0:0:54.451,69.4412,8.83908,0,0.000885,0,0
0:0:55.347,70.9669,9.03903,0,0.000885,0,0
0:0:56.242,71.7276,9.13555,0,0.000885,0,0
0:0:57.135,73.4312,9.34929,0,0.000885,0,0
0:0:58.045,75.8956,9.66645,0,0.000885,0,0
0:0:58.950,77.359,9.85261,0,0.000885,0,0
0:0:59.847,79.4141,10.1077,0,0.000885,0,0
0:1:0.740,81.1711,10.3352,0,0.000885,0,0
0:1:1.634,82.8125,10.5421,0,0.000885,0,0
0:1:2.542,84.2226,10.7213,0,0.000885,0,0
0:1:3.452,86.2733,10.9833,0,0.000885,0,0
0:1:4.353,88.3283,11.2453,0,0.000885,0,0
0:1:5.248,90.0854,11.4729,0,0.000885,0,0
0:1:6.145,92.0248,11.7142,0,0.000885,0,0
0:1:7.040,93.0212,11.8452,0,0.000885,0,0
0:1:7.941,95.6012,12.1692,0,0.000885,0,0
0:1:8.847,96.949,12.3416,0,0.000885,0,0
0:1:9.746,98.884,12.5898,0,0.000885,0,0
0:1:10.642,100.468,12.7898,0,0.000885,0,0
0:1:11.543,101.878,12.969,0,0.000885,0,0
0:1:12.442,103.87,13.2241,0,0.000885,0,0
0:1:13.351,105.454,13.4241,0,0.000885,0,0
0:1:14.252,107.625,13.6999,0,0.000885,0,0
0:1:15.145,109.733,13.9688,0,0.000885,0,0
0:1:16.039,111.317,14.1756,0,0.000885,0,0
0:1:16.936,112.549,14.3273,0,0.000885,0,0
0:1:17.850,114.955,14.6376,0,0.000885,0,0
0:1:18.757,116.481,14.8306,0,0.000885,0,0
0:1:19.653,117.771,14.9961,0,0.000885,0,0
0:1:20.550,120.115,15.2926,0,0.000885,0,0
0:1:21.447,122.17,15.5546,0,0.000885,0,0
0:1:22.340,123.225,15.6925,0,0.000885,0,0
0:1:23.250,125.16,15.9338,0,0.000885,0,0
0:1:24.152,127.095,16.182,0,0.000885,0,0
0:1:25.050,128.327,16.3406,0,0.000885,0,0
0:1:25.945,130.497,16.6164,0,0.000885,0,0
0:1:26.838,132.49,16.8715,0,0.000885,0,0
0:1:27.739,134.074,17.0714,0,0.000885,0,0
0:1:28.648,135.835,17.2921,0,0.000885,0,0
0:1:29.549,137.592,17.5196,0,0.000885,0,0
0:1:30.441,138.651,17.6506,0,0.000885,0,0
0:1:31.332,141.818,18.0574,0,0.000885,0,0
0:1:32.239,142.872,18.1884,0,0.000885,0,0
0:1:33.148,144.865,18.4435,0,0.000885,0,0
0:1:34.055,146.685,18.6779,0,0.000885,0,0
0:1:34.950,148.152,18.8641,0,0.000885,0,0
0:1:35.843,150.323,19.1398,0,0.000885,0,0
0:1:36.742,151.435,19.2846,0,0.000885,0,0
0:1:37.647,154.015,19.6087,0,0.000885,0,0
0:1:38.557,155.247,19.7673,0,0.000885,0,0
0:1:39.458,157.476,20.05,0,0.000885,0,0
0:1:40.353,158.708,20.2085,0,0.000885,0,0
0:1:41.251,160.643,20.4567,0,0.000885,0,0
0:1:42.143,162.227,20.6567,0,0.000885,0,0
0:1:43.054,164.455,20.9394,0,0.000885,0,0
0:1:43.955,165.981,21.1324,0,0.000885,0,0
0:1:44.853,167.622,21.3393,0,0.000885,0,0
0:1:45.747,169.735,21.6082,0,0.000885,0,0
0:1:46.640,171.377,21.8219,0,0.000885,0,0
0:1:47.548,173.018,22.0287,0,0.000885,0,0
0:1:48.458,174.602,22.2287,0,0.000885,0,0
0:1:49.357,176.185,22.4355,0,0.000885,0,0
0:1:50.249,177.827,22.6424,0,0.000885,0,0
0:1:51.144,180.291,22.9526,0,0.000885,0,0
0:1:52.042,181.874,23.1595,0,0.000885,0,0
0:1:52.944,183.694,23.387,0,0.000885,0,0
0:1:53.850,184.926,23.5456,0,0.000885,0,0
0:1:54.745,186.861,23.7938,0,0.000885,0,0
0:1:55.644,188.68,24.0213,0,0.000885,0,0
0:1:56.547,191.376,24.3661,0,0.000885,0,0
0:1:57.435,192.608,24.5247,0,0.000885,0,0
0:1:58.345,194.837,24.8073,0,0.000885,0,0
0:1:59.244,196.011,24.959,0,0.000885,0,0
0:2:0.139,198.355,25.2555,0,0.000885,0,0
0:2:1.044,200.29,25.5037,0,0.000885,0,0
0:2:1.943,201.7,25.683,0,0.000885,0,0
0:2:2.842,202.461,25.7795,0,0.000885,0,0
0:2:3.744,205.099,26.1173,0,0.000885,0,0
0:2:4.640,206.624,26.3104,0,0.000885,0,0
0:2:5.540,207.799,26.4552,0,0.000885,0,0
0:2:6.439,210.263,26.7723,0,0.000885,0,0
0:2:7.334,212.14,27.0137,0,0.000885,0,0
0:2:8.240,213.194,27.1447,0,0.000885,0,0
0:2:9.134,215.774,27.4756,0,0.000885,0,0
0:2:10.047,217.122,27.648,0,0.000885,0,0
0:2:10.942,218.826,27.8617,0,0.000885,0,0
0:2:11.836,220.761,28.1099,0,0.000885,0,0
0:2:12.730,222.932,28.3857,0,0.000885,0,0
0:2:13.634,224.573,28.5926,0,0.000885,0,0
0:2:14.537,226.099,28.7856,0,0.000885,0,0
0:2:15.444,227.856,29.0131,0,0.000885,0,0
0:2:16.344,229.853,29.2682,0,0.000885,0,0
0:2:17.232,231.259,29.4475,0,0.000885,0,0
0:2:18.136,233.665,29.7509,0,0.000885,0,0
0:2:19.037,235.306,29.9577,0,0.000885,0,0
0:2:19.937,236.832,30.1577,0,0.000885,0,0
0:2:20.836,238.416,30.3576,0,0.000885,0,0
0:2:21.745,240.293,30.592,0,0.000885,0,0
0:2:22.650,242.108,30.8265,0,0.000885,0,0
0:2:23.551,243.691,31.0264,0,0.000885,0,0
0:2:24.447,245.626,31.2746,0,0.000885,0,0
0:2:25.341,246.859,31.4332,0,0.000885,0,0
0:2:26.238,248.971,31.7021,0,0.000885,0,0
0:2:27.130,250.791,31.9296,0,0.000885,0,0
0:2:28.036,252.316,32.1227,0,0.000885,0,0
0:2:28.937,254.074,32.3502,0,0.000885,0,0
0:2:29.846,255.835,32.5708,0,0.000885,0,0
0:2:30.746,257.712,32.8121,0,0.000885,0,0
0:2:31.635,259.354,33.019,0,0.000885,0,0
0:2:32.538,261.818,33.3362,0,0.000885,0,0
0:2:33.438,262.049,33.3637,0,0.000885,0,0
0:2:34.343,264.398,33.6671,0,0.000885,0,0
0:2:35.250,267.036,33.998,0,0.000885,0,0
0:2:36.133,268.735,34.2187,0,0.000885,0,0
0:2:37.043,270.79,34.4807,0,0.000885,0,0
0:2:37.946,272.725,34.722,0,0.000885,0,0
0:2:38.845,272.609,34.7082,0,0.000885,0,0
0:2:39.739,275.131,35.0323,0,0.000885,0,0
0:2:40.637,277.654,35.3494,0,0.000885,0,0
0:2:41.537,279.175,35.5425,0,0.000885,0,0
0:2:42.425,280.758,35.7493,0,0.000885,0,0
0:2:43.330,282.462,35.9631,0,0.000885,0,0
0:2:44.235,284.046,36.163,0,0.000885,0,0
0:2:45.128,286.799,36.5146,0,0.000885,0,0
0:2:46.025,287.444,36.5974,0,0.000885,0,0
0:2:46.933,288.796,36.7697,0,0.000885,0,0
0:2:47.851,291.141,37.0662,0,0.000885,0,0
0:2:48.754,293.311,37.3489,0,0.000885,0,0
0:2:49.649,295.131,37.5764,0,0.000885,0,0
0:2:50.545,297.008,37.8177,0,0.000885,0,0
0:2:51.429,298.178,37.9625,0,0.000885,0,0
0:2:52.333,300.233,38.2245,0,0.000885,0,0
0:2:53.240,302.403,38.5003,0,0.000885,0,0
0:2:54.146,303.751,38.6727,0,0.000885,0,0
0:2:55.029,305.157,38.852,0,0.000885,0,0
0:2:55.938,307.915,39.2036,0,0.000885,0,0
0:2:56.830,309.325,39.3829,0,0.000885,0,0
0:2:57.737,310.673,39.5552,0,0.000885,0,0
0:2:58.637,312.256,39.7552,0,0.000885,0,0
0:2:59.547,314.249,40.0103,0,0.000885,0,0
0:3:0.445,316.068,40.2447,0,0.000885,0,0
0:3:1.347,318.297,40.5274,0,0.000885,0,0
0:3:2.252,319.76,40.7135,0,0.000885,0,0
0:3:3.157,321.17,40.8928,0,0.000885,0,0
0:3:4.054,323.693,41.2169,0,0.000885,0,0
0:3:4.942,324.983,41.3754,0,0.000885,0,0
0:3:5.841,326.566,41.5823,0,0.000885,0,0
0:3:6.737,328.092,41.7753,0,0.000885,0,0
0:3:7.646,329.733,41.9822,0,0.000885,0,0
0:3:8.548,331.962,42.2649,0,0.000885,0,0
0:3:9.453,334.368,42.5751,0,0.000885,0,0
0:3:10.349,335.365,42.6992,0,0.000885,0,0
0:3:11.234,337.767,43.0026,0,0.000885,0,0
0:3:12.141,338.883,43.1474,0,0.000885,0,0
0:3:13.046,340.76,43.3887,0,0.000885,0,0
0:3:13.947,342.869,43.6576,0,0.000885,0,0
0:3:14.834,344.221,43.83,0,0.000885,0,0
0:3:15.753,346.214,44.0782,0,0.000885,0,0
0:3:16.642,348.62,44.3884,0,0.000885,0,0
0:3:17.540,349.559,44.5057,0,0.000885,0,0
0:3:18.448,351.552,44.7608,0,0.000885,0,0
0:3:19.339,353.545,45.0159,0,0.000885,0,0
0:3:20.238,354.599,45.1469,0,0.000885,0,0
0:3:21.129,356.827,45.4296,0,0.000885,0,0
0:3:22.036,358.767,45.6778,0,0.000885,0,0
0:3:22.932,360.23,45.8639,0,0.000885,0,0
0:3:23.834,362.285,46.1259,0,0.000885,0,0
0:3:24.738,363.34,46.2638,0,0.000885,0,0
0:3:25.633,365.217,46.4982,0,0.000885,0,0
0:3:26.531,367.561,46.8016,0,0.000885,0,0
0:3:27.433,369.029,46.9878,0,0.000885,0,0
0:3:28.337,370.377,47.1601,0,0.000885,0,0
0:3:29.241,372.663,47.4497,0,0.000885,0,0
0:3:30.145,374.54,47.691,0,0.000885,0,0
0:3:31.046,375.893,47.8565,0,0.000885,0,0
0:3:31.937,377.414,48.0565,0,0.000885,0,0
0:3:32.842,379.705,48.346,0,0.000885,0,0
0:3:33.745,381.23,48.5391,0,0.000885,0,0
0:3:34.645,382.93,48.7528,0,0.000885,0,0
0:3:35.557,384.687,48.9804,0,0.000885,0,0
0:3:36.442,386.039,49.1527,0,0.000885,0,0
0:3:37.331,387.854,49.3803,0,0.000885,0,0
0:3:38.236,388.912,49.5181,0,0.000885,0,0
0:3:39.135,389.673,49.6147,0,0.000885,0,0
0:3:40.052,389.086,49.5388,0,0.000885,0,0
0:3:40.945,378.472,48.1875,0,0.000885,0,0
0:3:41.353,312.55,39.7965,0,0.000885,0,0