File: DataFile2021-07-03_083607.csv
Test ID:,Date Tested:,Time:,Test Type:,Diameter Avg. (mm):,Cyl. Corr. Factor:,Height (mm):,Age (days):,Weight (kN):,Break Type:,Ramp Rate (MPa/s):,Load at Break (kN):,Stress at Break (MPa):
12,7/3/2021,08:36,Cylinder,100,1,200,0,3.6,3,0.25,607.75,77.38
Sample Time,Load (kN),Stress (MPa),Long. Strain,Trans. Strain,Chan1 Deflection (mm),Chan2 Deflection (mm)
0:0:19.921,5.10211,0.648107,0,0.000885,0,0
0:0:21.221,11.3786,1.4479,0,0.000885,0,0
0:0:22.512,10.7336,1.36516,0,0.000885,0,0
0:0:23.831,12.6685,1.61337,0,0.000885,0,0
0:0:25.123,14.5457,1.85469,0,0.000885,0,0
0:0:26.436,18.0642,2.30285,0,0.000885,0,0
0:0:27.737,20.9956,2.67517,0,0.000885,0,0
0:0:29.031,22.9929,2.93027,0,0.000885,0,0
0:0:30.331,25.6307,3.26122,0,0.000885,0,0
0:0:31.644,28.0371,3.57148,0,0.000885,0,0
0:0:32.934,30.9685,3.9438,0,0.000885,0,0
0:0:34.230,33.6063,4.28164,0,0.000885,0,0
0:0:35.532,35.7192,4.55054,0,0.000885,0,0
0:0:36.841,38.2992,4.87459,0,0.000885,0,0
0:0:38.136,41.4085,5.27449,0,0.000885,0,0
0:0:39.429,43.4591,5.53649,0,0.000885,0,0
0:0:40.731,45.8078,5.83296,0,0.000885,0,0
0:0:42.037,48.3878,6.16391,0,0.000885,0,0
0:0:43.334,51.2613,6.52934,0,0.000885,0,0
0:0:44.634,53.8991,6.86028,0,0.000885,0,0
0:0:45.941,55.9542,7.12228,0,0.000885,0,0
0:0:47.246,58.8856,7.4946,0,0.000885,0,0
0:0:48.544,61.7013,7.85313,0,0.000885,0,0
0:0:49.835,63.8097,8.12202,0,0.000885,0,0
0:0:51.141,67.0391,8.53571,0,0.000885,0,0
0:0:52.444,68.7384,8.74945,0,0.000885,0,0
0:0:53.739,71.7276,9.13555,0,0.000885,0,0
0:0:55.032,74.2497,9.45271,0,0.000885,0,0
0:0:56.346,76.4783,9.7354,0,0.000885,0,0
0:0:57.646,79.6454,10.1422,0,0.000885,0,0
0:0:58.936,81.7583,10.4111,0,0.000885,0,0
0:1:0.230,84.6319,10.7765,0,0.000885,0,0
0:1:1.545,87.0384,11.0799,0,0.000885,0,0
0:1:2.843,89.5605,11.4039,0,0.000885,0,0
0:1:4.133,91.8469,11.6935,0,0.000885,0,0
0:1:5.428,94.7783,12.0658,0,0.000885,0,0
0:1:6.741,96.2462,12.252,0,0.000885,0,0
0:1:8.038,99.3555,12.6519,0,0.000885,0,0
0:1:9.326,101.642,12.9415,0,0.000885,0,0
0:1:10.641,104.809,13.3414,0,0.000885,0,0
0:1:11.946,107.331,13.6654,0,0.000885,0,0
0:1:13.243,109.969,14.0033,0,0.000885,0,0
0:1:14.533,112.669,14.348,0,0.000885,0,0
0:1:15.841,114.777,14.6169,0,0.000885,0,0
0:1:17.145,117.535,14.9685,0,0.000885,0,0
0:1:18.437,119.942,15.2719,0,0.000885,0,0
0:1:19.733,122.58,15.6097,0,0.000885,0,0
0:1:21.041,124.924,15.9062,0,0.000885,0,0
0:1:22.349,128.385,16.3475,0,0.000885,0,0
0:1:23.637,130.382,16.6026,0,0.000885,0,0
0:1:24.934,133.135,16.9542,0,0.000885,0,0
0:1:26.240,135.19,17.2162,0,0.000885,0,0
0:1:27.546,138.064,17.5816,0,0.000885,0,0
0:1:28.835,141.111,17.9677,0,0.000885,0,0
0:1:30.128,142.757,18.1746,0,0.000885,0,0
0:1:31.439,145.862,18.5745,0,0.000885,0,0
0:1:32.738,148.21,18.871,0,0.000885,0,0
0:1:34.030,150.968,19.2226,0,0.000885,0,0
0:1:35.336,153.842,19.588,0,0.000885,0,0
0:1:36.650,156.364,19.9121,0,0.000885,0,0
0:1:37.940,158.241,20.1465,0,0.000885,0,0
0:1:39.236,160.527,20.4361,0,0.000885,0,0
0:1:40.535,162.814,20.7325,0,0.000885,0,0
0:1:41.844,166.159,21.1531,0,0.000885,0,0
0:1:43.134,168.325,21.4289,0,0.000885,0,0
0:1:44.439,171.141,21.7874,0,0.000885,0,0
0:1:45.740,173.547,22.0977,0,0.000885,0,0
0:1:47.048,176.363,22.4562,0,0.000885,0,0
0:1:48.340,178.765,22.7596,0,0.000885,0,0
0:1:49.634,181.229,23.0768,0,0.000885,0,0
0:1:50.945,183.636,23.3801,0,0.000885,0,0
0:1:52.254,186.745,23.78,0,0.000885,0,0
0:1:53.547,188.738,24.0282,0,0.000885,0,0
0:1:54.837,192.141,24.4626,0,0.000885,0,0
0:1:56.145,194.192,24.7246,0,0.000885,0,0
0:1:57.433,196.362,25.0004,0,0.000885,0,0
0:1:58.730,199.765,25.4348,0,0.000885,0,0
0:2:0.031,202.167,25.7381,0,0.000885,0,0
0:2:1.336,204.28,26.007,0,0.000885,0,0
0:2:2.631,206.331,26.269,0,0.000885,0,0
0:2:3.917,208.915,26.6,0,0.000885,0,0
0:2:5.197,212.256,27.0274,0,0.000885,0,0
0:2:6.501,214.133,27.2619,0,0.000885,0,0
0:2:7.788,217.006,27.6273,0,0.000885,0,0
0:2:9.076,220.174,28.0341,0,0.000885,0,0
0:2:10.365,222.166,28.2892,0,0.000885,0,0
0:2:11.668,224.164,28.5443,0,0.000885,0,0
0:2:12.950,227.446,28.958,0,0.000885,0,0
0:2:14.239,229.791,29.2613,0,0.000885,0,0
0:2:15.538,232.313,29.5785,0,0.000885,0,0
0:2:16.839,234.426,29.8474,0,0.000885,0,0
0:2:18.137,237.477,30.2335,0,0.000885,0,0
0:2:19.434,239.999,30.5576,0,0.000885,0,0
0:2:20.742,242.579,30.8885,0,0.000885,0,0
0:2:22.044,244.63,31.1505,0,0.000885,0,0
0:2:23.334,247.739,31.5435,0,0.000885,0,0
0:2:24.639,250.204,31.8538,0,0.000885,0,0
0:2:25.941,252.548,32.1571,0,0.000885,0,0
0:2:27.240,255.248,32.5019,0,0.000885,0,0
0:2:28.534,257.534,32.7915,0,0.000885,0,0
0:2:29.817,259.999,33.1017,0,0.000885,0,0
0:2:31.118,262.752,33.4534,0,0.000885,0,0
0:2:32.408,265.336,33.7843,0,0.000885,0,0
0:2:33.694,267.738,34.0877,0,0.000885,0,0
0:2:34.976,270.318,34.4186,0,0.000885,0,0
0:2:36.281,272.841,34.7427,0,0.000885,0,0
0:2:37.569,275.95,35.1357,0,0.000885,0,0
0:2:38.855,277.591,35.3425,0,0.000885,0,0
0:2:40.144,280.758,35.7493,0,0.000885,0,0
0:2:41.447,283.516,36.1009,0,0.000885,0,0
0:2:42.737,285.393,36.3354,0,0.000885,0,0
0:2:44.043,287.973,36.6663,0,0.000885,0,0
0:2:45.328,290.847,37.0317,0,0.000885,0,0
0:2:46.633,293.721,37.3972,0,0.000885,0,0
0:2:47.933,295.598,37.6385,0,0.000885,0,0
0:2:49.241,298.298,37.9832,0,0.000885,0,0
0:2:50.541,300.642,38.2797,0,0.000885,0,0
0:2:51.841,303.693,38.6658,0,0.000885,0,0
0:2:53.133,306.389,39.0105,0,0.000885,0,0
0:2:54.437,308.56,39.2863,0,0.000885,0,0
0:2:55.743,311.26,39.6311,0,0.000885,0,0
0:2:57.039,313.72,39.9413,0,0.000885,0,0
0:2:58.345,315.89,40.2171,0,0.000885,0,0
0:2:59.634,319,40.617,0,0.000885,0,0
0:3:0.939,321.406,40.9204,0,0.000885,0,0
0:3:2.238,323.986,41.2513,0,0.000885,0,0
0:3:3.544,326.566,41.5823,0,0.000885,0,0
0:3:4.843,328.559,41.8305,0,0.000885,0,0
0:3:6.149,332.02,42.2718,0,0.000885,0,0
0:3:7.438,333.897,42.5131,0,0.000885,0,0
0:3:8.741,336.655,42.8647,0,0.000885,0,0
0:3:10.042,339.35,43.2094,0,0.000885,0,0
0:3:11.347,341.463,43.4783,0,0.000885,0,0
0:3:12.647,344.452,43.8576,0,0.000885,0,0
0:3:13.946,346.681,44.1402,0,0.000885,0,0
0:3:15.243,349.91,44.5539,0,0.000885,0,0
0:3:16.548,352.139,44.8366,0,0.000885,0,0
0:3:17.845,354.132,45.0917,0,0.000885,0,0
0:3:19.145,357.005,45.4571,0,0.000885,0,0
0:3:20.443,360.057,45.8432,0,0.000885,0,0
0:3:21.749,361.698,46.0501,0,0.000885,0,0
0:3:23.046,364.687,46.4362,0,0.000885,0,0
0:3:24.348,367.267,46.7602,0,0.000885,0,0
0:3:25.646,369.967,47.105,0,0.000885,0,0
0:3:26.940,371.902,47.3532,0,0.000885,0,0
0:3:28.243,374.954,47.7393,0,0.000885,0,0
0:3:29.546,377.183,48.022,0,0.000885,0,0
0:3:30.844,379.353,48.2978,0,0.000885,0,0
0:3:32.149,382.049,48.6425,0,0.000885,0,0
0:3:33.450,385.274,49.0562,0,0.000885,0,0
0:3:34.734,387.68,49.3596,0,0.000885,0,0
0:3:36.033,389.967,49.6491,0,0.000885,0,0
0:3:37.337,392.373,49.9594,0,0.000885,0,0
0:3:38.647,395.011,50.2973,0,0.000885,0,0
0:3:39.943,397.711,50.6351,0,0.000885,0,0
0:3:41.248,400.055,50.9385,0,0.000885,0,0
0:3:42.547,402.226,51.2143,0,0.000885,0,0
0:3:43.845,404.922,51.559,0,0.000885,0,0
0:3:45.142,407.27,51.8555,0,0.000885,0,0
0:3:46.449,410.202,52.2278,0,0.000885,0,0
0:3:47.746,412.43,52.5105,0,0.000885,0,0
0:3:49.049,414.659,52.7932,0,0.000885,0,0
0:3:50.347,417.297,53.131,0,0.000885,0,0
0:3:51.654,420.584,53.5516,0,0.000885,0,0
0:3:52.944,422.692,53.8205,0,0.000885,0,0
0:3:54.243,424.921,54.1032,0,0.000885,0,0
0:3:55.553,427.737,54.4617,0,0.000885,0,0
0:3:56.855,430.846,54.8547,0,0.000885,0,0
0:3:58.144,433.195,55.1581,0,0.000885,0,0
0:3:59.449,436.713,55.6062,0,0.000885,0,0
0:4:0.754,439.235,55.9234,0,0.000885,0,0
0:4:2.051,442.518,56.344,0,0.000885,0,0
0:4:3.349,445.449,56.7163,0,0.000885,0,0
0:4:4.650,447.384,56.9645,0,0.000885,0,0
0:4:5.956,449.964,57.2885,0,0.000885,0,0
0:4:7.255,452.722,57.6402,0,0.000885,0,0
0:4:8.547,454.364,57.8539,0,0.000885,0,0
0:4:9.853,457.415,58.24,0,0.000885,0,0
0:4:11.156,459.234,58.4744,0,0.000885,0,0
0:4:12.455,462.166,58.8468,0,0.000885,0,0
0:4:13.745,464.159,59.1019,0,0.000885,0,0
0:4:15.052,466.565,59.4052,0,0.000885,0,0
0:4:16.359,469.906,59.8327,0,0.000885,0,0
0:4:17.654,471.903,60.0878,0,0.000885,0,0
0:4:18.952,474.011,60.3498,0,0.000885,0,0
0:4:20.250,477.179,60.7566,0,0.000885,0,0
0:4:21.555,479.234,61.0186,0,0.000885,0,0
0:4:22.849,482.636,61.453,0,0.000885,0,0
0:4:24.151,484.278,61.6598,0,0.000885,0,0
0:4:25.450,486.916,61.9977,0,0.000885,0,0
0:4:26.755,489.496,62.3217,0,0.000885,0,0
0:4:28.047,492.369,62.694,0,0.000885,0,0
0:4:29.350,494.891,63.0112,0,0.000885,0,0
0:4:30.658,498.121,63.4249,0,0.000885,0,0
0:4:31.950,499.82,63.6386,0,0.000885,0,0
0:4:33.251,502.458,63.9765,0,0.000885,0,0
0:4:34.549,505.273,64.335,0,0.000885,0,0
0:4:35.856,507.622,64.6315,0,0.000885,0,0
0:4:37.149,510.496,64.9969,0,0.000885,0,0
0:4:38.450,513.369,65.3623,0,0.000885,0,0
0:4:39.757,515.713,65.6657,0,0.000885,0,0
0:4:41.054,517.648,65.907,0,0.000885,0,0
0:4:42.345,520.522,66.2724,0,0.000885,0,0
0:4:43.656,523.338,66.6309,0,0.000885,0,0
0:4:44.951,525.508,66.9067,0,0.000885,0,0
0:4:46.260,527.679,67.1894,0,0.000885,0,0
0:4:47.552,530.846,67.5893,0,0.000885,0,0
0:4:48.853,533.542,67.934,0,0.000885,0,0
0:4:50.151,535.891,68.2305,0,0.000885,0,0
0:4:51.457,538.235,68.527,0,0.000885,0,0
0:4:52.758,540.993,68.8786,0,0.000885,0,0
0:4:54.055,543.457,69.1958,0,0.000885,0,0
0:4:55.353,545.508,69.4578,0,0.000885,0,0
0:4:56.656,547.856,69.7543,0,0.000885,0,0
0:4:57.957,551.433,70.2093,0,0.000885,0,0
0:4:59.249,553.661,70.492,0,0.000885,0,0
0:5:0.558,555.654,70.7471,0,0.000885,0,0
0:5:1.861,558.585,71.1194,0,0.000885,0,0
0:5:3.152,561.637,71.5124,0,0.000885,0,0
0:5:4.458,564.043,71.8158,0,0.000885,0,0
0:5:5.757,566.503,72.133,0,0.000885,0,0
0:5:7.047,569.319,72.4915,0,0.000885,0,0
0:5:8.351,570.845,72.6845,0,0.000885,0,0
0:5:9.655,573.309,72.9948,0,0.000885,0,0
0:5:10.965,576.361,73.3809,0,0.000885,0,0
0:5:12.257,579.292,73.7601,0,0.000885,0,0
0:5:13.549,581.93,74.0911,0,0.000885,0,0
0:5:14.854,584.278,74.3944,0,0.000885,0,0
0:5:16.168,586.623,74.6909,0,0.000885,0,0
0:5:17.458,589.323,75.0356,0,0.000885,0,0
0:5:18.758,591.609,75.3252,0,0.000885,0,0
0:5:20.045,595.016,75.7596,0,0.000885,0,0
0:5:21.353,595.839,75.863,0,0.000885,0,0
0:5:22.656,596.542,75.9526,0,0.000885,0,0
0:5:23.958,600.417,76.4491,0,0.000885,0,0
0:5:25.264,604.82,77.0075,0,0.000885,0,0
0:5:26.575,607.93,77.4005,0,0.000885,0,0
0:5:27.858,606.226,77.1868,0,0.000885,0,0
0:5:29.156,603.468,76.8352,0,0.000885,0,0
0:5:29.349,443.047,56.4129,0,0.000885,0,0