File: DataFile2021-07-28_101506.csv
Test ID:,Date Tested:,Time:,Test Type:,Diameter Avg. (mm):,Cyl. Corr. Factor:,Height (mm):,Age (days):,Weight (kN):,Break Type:,Ramp Rate (MPa/s):,Load at Break (kN):,Stress at Break (MPa):
12,7/28/2021,10:15,Cylinder,100,1,200,0,13.69,3,0.35,1289.54,164.19
Sample Time,Load (kN),Stress (MPa),Long. Strain,Trans. Strain,Chan1 Deflection (mm),Chan2 Deflection (mm)
0:0:13.915,6.57002,0.834266,0,0.000885,0,0
0:0:15.901,10.6179,1.35137,0,0.000885,0,0
0:0:17.888,15.075,1.91674,0,0.000885,0,0
0:0:19.889,21.0534,2.68206,0,0.000885,0,0
0:0:21.895,27.0986,3.44738,0,0.000885,0,0
0:0:23.885,32.9035,4.19201,0,0.000885,0,0
0:0:25.900,38.357,4.88149,0,0.000885,0,0
0:0:27.889,43.2234,5.50202,0,0.000885,0,0
0:0:29.897,49.0327,6.23976,0,0.000885,0,0
0:0:31.891,54.7798,6.97749,0,0.000885,0,0
0:0:33.883,60.3535,7.68076,0,0.000885,0,0
0:0:35.897,65.8648,8.38402,0,0.000885,0,0
0:0:37.887,70.8513,9.01834,0,0.000885,0,0
0:0:39.890,76.5984,9.75608,0,0.000885,0,0
0:0:41.893,81.9941,10.4387,0,0.000885,0,0
0:0:43.883,87.2118,11.1075,0,0.000885,0,0
0:0:45.897,93.4304,11.8935,0,0.000885,0,0
0:0:47.885,98.6482,12.5622,0,0.000885,0,0
0:0:49.892,104.106,13.2517,0,0.000885,0,0
0:0:51.891,109.618,13.955,0,0.000885,0,0
0:0:53.882,115.485,14.7065,0,0.000885,0,0
0:0:55.896,120.996,15.4029,0,0.000885,0,0
0:0:57.886,125.925,16.0303,0,0.000885,0,0
0:0:59.895,131.903,16.7956,0,0.000885,0,0
0:1:1.902,137.299,17.4851,0,0.000885,0,0
0:1:3.892,141.876,18.0643,0,0.000885,0,0
0:1:5.907,148.562,18.9123,0,0.000885,0,0
0:1:7.894,152.903,19.4708,0,0.000885,0,0
0:1:9.903,159.18,20.2637,0,0.000885,0,0
0:1:11.905,164.575,20.9532,0,0.000885,0,0
0:1:13.897,169.909,21.6357,0,0.000885,0,0
0:1:15.912,176.07,22.4149,0,0.000885,0,0
0:1:17.902,180.994,23.0423,0,0.000885,0,0
0:1:19.903,186.509,23.7455,0,0.000885,0,0
0:1:21.909,192.608,24.5247,0,0.000885,0,0
0:1:23.884,197.417,25.1383,0,0.000885,0,0
0:1:25.887,203.164,25.8691,0,0.000885,0,0
0:1:27.870,208.559,26.5517,0,0.000885,0,0
0:1:29.874,214.249,27.2826,0,0.000885,0,0
0:1:31.876,219.177,27.9031,0,0.000885,0,0
0:1:33.872,224.924,28.6408,0,0.000885,0,0
0:1:35.873,230.907,29.3992,0,0.000885,0,0
0:1:37.879,235.951,30.0405,0,0.000885,0,0
0:1:39.888,241.934,30.8058,0,0.000885,0,0
0:1:41.887,246.334,31.3643,0,0.000885,0,0
0:1:43.880,252.548,32.1571,0,0.000885,0,0
0:1:45.893,258.064,32.8604,0,0.000885,0,0
0:1:47.887,263.281,33.5223,0,0.000885,0,0
0:1:49.890,269.206,34.2738,0,0.000885,0,0
0:1:51.888,273.721,34.853,0,0.000885,0,0
0:1:53.884,280.349,35.6942,0,0.000885,0,0
0:1:55.882,285.861,36.3974,0,0.000885,0,0
0:1:57.877,291.025,37.0524,0,0.000885,0,0
0:1:59.877,296.007,37.6867,0,0.000885,0,0
0:2:1.880,301.523,38.39,0,0.000885,0,0
0:2:3.874,307.741,39.1829,0,0.000885,0,0
0:2:5.889,312.901,39.8379,0,0.000885,0,0
0:2:7.874,318.297,40.5274,0,0.000885,0,0
0:2:9.888,323.105,41.141,0,0.000885,0,0
0:2:11.878,328.91,41.8788,0,0.000885,0,0
0:2:13.875,334.542,42.5958,0,0.000885,0,0
0:2:15.883,340.115,43.306,0,0.000885,0,0
0:2:17.876,345.218,43.9541,0,0.000885,0,0
0:2:19.891,350.907,44.678,0,0.000885,0,0
0:2:21.882,357.535,45.5192,0,0.000885,0,0
0:2:23.866,362.579,46.1673,0,0.000885,0,0
0:2:25.875,367.503,46.7947,0,0.000885,0,0
0:2:27.875,372.957,47.4842,0,0.000885,0,0
0:2:29.895,378.997,48.2564,0,0.000885,0,0
0:2:31.883,384.687,48.9804,0,0.000885,0,0
0:2:33.890,389.967,49.6491,0,0.000885,0,0
0:2:35.898,394.775,50.2628,0,0.000885,0,0
0:2:37.870,400.878,51.0419,0,0.000885,0,0
0:2:39.874,406.741,51.7865,0,0.000885,0,0
0:2:41.857,411.785,52.4277,0,0.000885,0,0
0:2:43.834,417.003,53.0965,0,0.000885,0,0
0:2:45.836,422.461,53.786,0,0.000885,0,0
0:2:47.813,427.972,54.4893,0,0.000885,0,0
0:2:49.797,433.604,55.2063,0,0.000885,0,0
0:2:51.797,438.999,55.8958,0,0.000885,0,0
0:2:53.791,444.689,56.6197,0,0.000885,0,0
0:2:55.791,450.258,57.3299,0,0.000885,0,0
0:2:57.797,455.832,58.0401,0,0.000885,0,0
0:2:59.802,460.934,58.6882,0,0.000885,0,0
0:3:1.789,466.449,59.3914,0,0.000885,0,0
0:3:3.779,472.312,60.1361,0,0.000885,0,0
0:3:5.787,477.944,60.8531,0,0.000885,0,0
0:3:7.796,482.574,61.4461,0,0.000885,0,0
0:3:9.779,488.384,62.1838,0,0.000885,0,0
0:3:11.792,493.779,62.8664,0,0.000885,0,0
0:3:13.786,499.117,63.549,0,0.000885,0,0
0:3:15.788,505.158,64.3212,0,0.000885,0,0
0:3:17.784,510.496,64.9969,0,0.000885,0,0
0:3:19.782,515.713,65.6657,0,0.000885,0,0
0:3:21.789,521.225,66.362,0,0.000885,0,0
0:3:23.765,527.034,67.1067,0,0.000885,0,0
0:3:25.766,532.603,67.8168,0,0.000885,0,0
0:3:27.740,537.999,68.4994,0,0.000885,0,0
0:3:29.734,543.688,69.2234,0,0.000885,0,0
0:3:31.720,548.968,69.899,0,0.000885,0,0
0:3:33.698,554.658,70.623,0,0.000885,0,0
0:3:35.712,559.818,71.278,0,0.000885,0,0
0:3:37.695,565.04,71.9399,0,0.000885,0,0
0:3:39.680,570.729,72.6707,0,0.000885,0,0
0:3:41.702,576.067,73.3464,0,0.000885,0,0
0:3:43.685,581.988,74.098,0,0.000885,0,0
0:3:45.703,587.325,74.7805,0,0.000885,0,0
0:3:47.686,592.668,75.4631,0,0.000885,0,0
0:3:49.686,598.299,76.1802,0,0.000885,0,0
0:3:51.692,603.762,76.8765,0,0.000885,0,0
0:3:53.688,609.277,77.5729,0,0.000885,0,0
0:3:55.719,614.62,78.2555,0,0.000885,0,0
0:3:57.704,620.549,79.0139,0,0.000885,0,0
0:3:59.702,625.771,79.6758,0,0.000885,0,0
0:4:1.702,631.523,80.4067,0,0.000885,0,0
0:4:3.683,636.572,81.0479,0,0.000885,0,0
0:4:5.690,642.034,81.7442,0,0.000885,0,0
0:4:7.676,647.256,82.413,0,0.000885,0,0
0:4:9.676,652.892,83.1301,0,0.000885,0,0
0:4:11.682,658.822,83.8816,0,0.000885,0,0
0:4:13.677,664.044,84.5504,0,0.000885,0,0
0:4:15.699,669.795,85.2813,0,0.000885,0,0
0:4:17.691,675.551,86.0121,0,0.000885,0,0
0:4:19.694,680.831,86.6878,0,0.000885,0,0
0:4:21.702,686.289,87.3842,0,0.000885,0,0
0:4:23.684,691.338,88.0254,0,0.000885,0,0
0:4:25.696,697.094,88.7562,0,0.000885,0,0
0:4:27.692,703.255,89.5422,0,0.000885,0,0
0:4:29.691,708.068,90.1558,0,0.000885,0,0
0:4:31.703,713.762,90.8798,0,0.000885,0,0
0:4:33.695,719.34,91.59,0,0.000885,0,0
0:4:35.716,724.331,92.2243,0,0.000885,0,0
0:4:37.703,729.904,92.9344,0,0.000885,0,0
0:4:39.708,735.54,93.6515,0,0.000885,0,0
0:4:41.711,741.35,94.3892,0,0.000885,0,0
0:4:43.693,746.398,95.0373,0,0.000885,0,0
0:4:45.705,751.918,95.7337,0,0.000885,0,0
0:4:47.689,757.612,96.4645,0,0.000885,0,0
0:4:49.698,762.834,97.1264,0,0.000885,0,0
0:4:51.693,768.528,97.8504,0,0.000885,0,0
0:4:53.696,773.986,98.5468,0,0.000885,0,0
0:4:55.710,779.506,99.25,0,0.000885,0,0
0:4:57.695,785.258,99.9809,0,0.000885,0,0
0:4:59.691,790.6,100.663,0,0.000885,0,0
0:5:1.689,796.236,101.381,0,0.000885,0,0
0:5:3.673,801.694,102.077,0,0.000885,0,0
0:5:5.682,806.916,102.739,0,0.000885,0,0
0:5:7.668,812.201,103.414,0,0.000885,0,0
0:5:9.669,817.837,104.132,0,0.000885,0,0
0:5:11.664,823.53,104.855,0,0.000885,0,0
0:5:13.649,829.46,105.607,0,0.000885,0,0
0:5:15.662,834.566,106.262,0,0.000885,0,0
0:5:17.646,840.26,106.986,0,0.000885,0,0
0:5:19.641,845.66,107.675,0,0.000885,0,0
0:5:21.641,850.94,108.344,0,0.000885,0,0
0:5:23.625,856.403,109.041,0,0.000885,0,0
0:5:25.634,862.154,109.771,0,0.000885,0,0
0:5:27.619,867.732,110.482,0,0.000885,0,0
0:5:29.618,873.19,111.178,0,0.000885,0,0
0:5:31.615,878.003,111.792,0,0.000885,0,0
0:5:33.609,883.581,112.502,0,0.000885,0,0
0:5:35.619,889.569,113.26,0,0.000885,0,0
0:5:37.601,895.027,113.957,0,0.000885,0,0
0:5:39.626,900.663,114.674,0,0.000885,0,0
0:5:41.616,905.355,115.273,0,0.000885,0,0
0:5:43.600,911.814,116.094,0,0.000885,0,0
0:5:45.611,916.979,116.756,0,0.000885,0,0
0:5:47.606,923.024,117.521,0,0.000885,0,0
0:5:49.614,927.428,118.087,0,0.000885,0,0
0:5:51.609,933.357,118.838,0,0.000885,0,0
0:5:53.602,938.993,119.555,0,0.000885,0,0
0:5:55.614,944.273,120.231,0,0.000885,0,0
0:5:57.606,949.967,120.955,0,0.000885,0,0
0:5:59.629,955.251,121.624,0,0.000885,0,0
0:6:1.621,960.709,122.32,0,0.000885,0,0
0:6:3.607,966.523,123.065,0,0.000885,0,0
0:6:5.618,971.861,123.74,0,0.000885,0,0
0:6:7.602,977.675,124.478,0,0.000885,0,0
0:6:9.608,982.194,125.057,0,0.000885,0,0
0:6:11.617,988.591,125.871,0,0.000885,0,0
0:6:13.619,993.581,126.505,0,0.000885,0,0
0:6:15.627,999.275,127.229,0,0.000885,0,0
0:6:17.612,1004.27,127.87,0,0.000885,0,0
0:6:19.612,1010.25,128.629,0,0.000885,0,0
0:6:21.604,1015.6,129.311,0,0.000885,0,0
0:6:23.590,1021.29,130.035,0,0.000885,0,0
0:6:25.601,1027.45,130.821,0,0.000885,0,0
0:6:27.594,1031.68,131.359,0,0.000885,0,0
0:6:29.617,1038.01,132.166,0,0.000885,0,0
0:6:31.618,1043.48,132.862,0,0.000885,0,0
0:6:33.610,1048.46,133.496,0,0.000885,0,0
0:6:35.621,1054.81,134.303,0,0.000885,0,0
0:6:37.606,1060.21,134.992,0,0.000885,0,0
0:6:39.618,1065.02,135.599,0,0.000885,0,0
0:6:41.611,1071.24,136.392,0,0.000885,0,0
0:6:43.618,1076.82,137.102,0,0.000885,0,0
0:6:45.629,1082.04,137.771,0,0.000885,0,0
0:6:47.625,1087.21,138.426,0,0.000885,0,0
0:6:49.631,1092.9,139.15,0,0.000885,0,0
0:6:51.632,1098.54,139.867,0,0.000885,0,0
0:6:53.616,1103.82,140.543,0,0.000885,0,0
0:6:55.626,1109.69,141.287,0,0.000885,0,0
0:6:57.609,1114.56,141.908,0,0.000885,0,0
0:6:59.624,1120.49,142.666,0,0.000885,0,0
0:7:1.623,1123.83,143.094,0,0.000885,0,0
0:7:3.605,1132.35,144.176,0,0.000885,0,0
0:7:5.614,1137.63,144.845,0,0.000885,0,0
0:7:7.622,1143.09,145.541,0,0.000885,0,0
0:7:9.625,1147.84,146.148,0,0.000885,0,0
0:7:11.620,1154.12,146.948,0,0.000885,0,0
0:7:13.612,1158.47,147.5,0,0.000885,0,0
0:7:15.633,1163.75,148.175,0,0.000885,0,0
0:7:17.618,1169.68,148.927,0,0.000885,0,0
0:7:19.623,1175.73,149.699,0,0.000885,0,0
0:7:21.622,1181.48,150.43,0,0.000885,0,0
0:7:23.604,1185.88,150.988,0,0.000885,0,0
0:7:25.627,1191.75,151.74,0,0.000885,0,0
0:7:27.610,1197.68,152.491,0,0.000885,0,0
0:7:29.613,1202.02,153.043,0,0.000885,0,0
0:7:31.613,1208.48,153.87,0,0.000885,0,0
0:7:33.606,1213.64,154.525,0,0.000885,0,0
0:7:35.615,1219.63,155.291,0,0.000885,0,0
0:7:37.598,1224.09,155.856,0,0.000885,0,0
0:7:39.596,1229.67,156.566,0,0.000885,0,0
0:7:41.597,1235.66,157.331,0,0.000885,0,0
0:7:43.581,1241.59,158.083,0,0.000885,0,0
0:7:45.591,1246.69,158.731,0,0.000885,0,0
0:7:47.573,1251.56,159.352,0,0.000885,0,0
0:7:49.576,1258.14,160.193,0,0.000885,0,0
0:7:51.567,1263.6,160.889,0,0.000885,0,0
0:7:53.556,1268.17,161.468,0,0.000885,0,0
0:7:55.565,1271.23,161.854,0,0.000885,0,0
0:7:57.549,1279.8,162.951,0,0.000885,0,0
0:7:59.542,1286.26,163.771,0,0.000885,0,0
0:8:1.538,1285.67,163.695,0,0.000885,0,0
0:8:1.924,1235.42,157.297,0,0.000885,0,0