File: DataFile2021-06-29_062144.csv
Test ID:,Date Tested:,Time:,Test Type:,Diameter Avg. (mm):,Cyl. Corr. Factor:,Height (mm):,Age (days):,Weight (kN):,Break Type:,Ramp Rate (MPa/s):,Load at Break (kN):,Stress at Break (MPa):
12,6/29/2021,06:21,Cylinder,100,1,200,0,3.6,3,0.23,276.77,35.24
Sample Time,Load (kN),Stress (MPa),Long. Strain,Trans. Strain,Chan1 Deflection (mm),Chan2 Deflection (mm)
0:0:19.163,5.45352,0.69637,0,0.000885,0,0
0:0:19.859,11.8456,1.50995,0,0.000885,0,0
0:0:20.551,11.085,1.41343,0,0.000885,0,0
0:0:21.247,10.907,1.38585,0,0.000885,0,0
0:0:21.941,10.6757,1.35827,0,0.000885,0,0
0:0:22.642,10.7336,1.36516,0,0.000885,0,0
0:0:23.339,11.6143,1.47548,0,0.000885,0,0
0:0:24.042,14.0742,1.79264,0,0.000885,0,0
0:0:24.748,15.4843,1.9719,0,0.000885,0,0
0:0:25.455,17.01,2.16495,0,0.000885,0,0
0:0:26.154,19.2964,2.45453,0,0.000885,0,0
0:0:26.850,20.5864,2.62001,0,0.000885,0,0
0:0:27.548,21.5828,2.75101,0,0.000885,0,0
0:0:28.241,23.1085,2.94406,0,0.000885,0,0
0:0:28.941,24.87,3.16469,0,0.000885,0,0
0:0:29.648,25.3949,3.23364,0,0.000885,0,0
0:0:30.357,26.9785,3.43359,0,0.000885,0,0
0:0:31.065,28.3263,3.60596,0,0.000885,0,0
0:0:31.761,30.2657,3.85417,0,0.000885,0,0
0:0:32.456,31.9649,4.06791,0,0.000885,0,0
0:0:33.154,32.7834,4.17133,0,0.000885,0,0
0:0:33.849,34.1357,4.3437,0,0.000885,0,0
0:0:34.545,34.7806,4.42643,0,0.000885,0,0
0:0:35.255,36.7734,4.68154,0,0.000885,0,0
0:0:35.960,38.0056,4.84012,0,0.000885,0,0
0:0:36.661,40.0562,5.10212,0,0.000885,0,0
0:0:37.356,40.8792,5.20554,0,0.000885,0,0
0:0:38.050,42.3471,5.3917,0,0.000885,0,0
0:0:38.749,43.8684,5.58475,0,0.000885,0,0
0:0:39.450,44.9849,5.72954,0,0.000885,0,0
0:0:40.159,46.1592,5.87433,0,0.000885,0,0
0:0:40.865,47.8584,6.09497,0,0.000885,0,0
0:0:41.560,48.7392,6.20528,0,0.000885,0,0
0:0:42.255,50.2649,6.39833,0,0.000885,0,0
0:0:42.954,52.1421,6.63965,0,0.000885,0,0
0:0:43.649,53.0184,6.74997,0,0.000885,0,0
0:0:44.346,54.722,6.9706,0,0.000885,0,0
0:0:45.054,55.6028,7.08092,0,0.000885,0,0
0:0:45.760,57.4755,7.31534,0,0.000885,0,0
0:0:46.461,59.059,7.52218,0,0.000885,0,0
0:0:47.157,59.882,7.6256,0,0.000885,0,0
0:0:47.851,61.3499,7.81176,0,0.000885,0,0
0:0:48.550,62.8133,7.99792,0,0.000885,0,0
0:0:49.246,64.3391,8.19097,0,0.000885,0,0
0:0:49.952,65.5134,8.34266,0,0.000885,0,0
0:0:50.659,66.919,8.52192,0,0.000885,0,0
0:0:51.360,68.4448,8.71497,0,0.000885,0,0
0:0:52.057,69.7348,8.88045,0,0.000885,0,0
0:0:52.754,71.2027,9.06661,0,0.000885,0,0
0:0:53.450,72.0834,9.17692,0,0.000885,0,0
0:0:54.151,73.5469,9.36308,0,0.000885,0,0
0:0:54.849,75.424,9.6044,0,0.000885,0,0
0:0:55.557,76.3048,9.71471,0,0.000885,0,0
0:0:56.264,77.4791,9.8664,0,0.000885,0,0
0:0:56.956,78.7068,10.025,0,0.000885,0,0
0:0:57.656,81.1133,10.3283,0,0.000885,0,0
0:0:58.353,82.0519,10.4456,0,0.000885,0,0
0:0:59.045,83.5776,10.6386,0,0.000885,0,0
0:0:59.755,84.752,10.7903,0,0.000885,0,0
0:1:0.461,85.864,10.9351,0,0.000885,0,0
0:1:1.164,87.799,11.1764,0,0.000885,0,0
0:1:1.862,89.0312,11.335,0,0.000885,0,0
0:1:2.555,90.4412,11.5142,0,0.000885,0,0
0:1:3.254,91.669,11.6728,0,0.000885,0,0
0:1:3.952,93.3726,11.8866,0,0.000885,0,0
0:1:4.654,93.7819,11.9417,0,0.000885,0,0
0:1:5.362,95.7168,12.1899,0,0.000885,0,0
0:1:6.064,97.0068,12.3485,0,0.000885,0,0
0:1:6.762,98.5326,12.5485,0,0.000885,0,0
0:1:7.459,99.6491,12.6864,0,0.000885,0,0
0:1:8.153,101.878,12.969,0,0.000885,0,0
0:1:8.852,102.403,13.038,0,0.000885,0,0
0:1:9.552,104.458,13.3,0,0.000885,0,0
0:1:10.261,105.396,13.4172,0,0.000885,0,0
0:1:10.967,107.273,13.6585,0,0.000885,0,0
0:1:11.660,108.092,13.7619,0,0.000885,0,0
0:1:12.359,109.56,13.9481,0,0.000885,0,0
0:1:13.055,110.734,14.0998,0,0.000885,0,0
0:1:13.749,112.611,14.3411,0,0.000885,0,0
0:1:14.449,114.017,14.5204,0,0.000885,0,0
0:1:15.159,115.249,14.672,0,0.000885,0,0
0:1:15.864,116.303,14.8099,0,0.000885,0,0
0:1:16.564,117.535,14.9685,0,0.000885,0,0
0:1:17.256,119.003,15.1547,0,0.000885,0,0
0:1:17.956,121.463,15.4649,0,0.000885,0,0
0:1:18.652,122.05,15.5408,0,0.000885,0,0
0:1:19.346,123.167,15.6787,0,0.000885,0,0
0:1:20.054,124.279,15.8235,0,0.000885,0,0
0:1:20.761,126.45,16.0993,0,0.000885,0,0
0:1:21.461,127.152,16.1889,0,0.000885,0,0
0:1:22.160,128.736,16.3888,0,0.000885,0,0
0:1:22.853,130.382,16.6026,0,0.000885,0,0
0:1:23.552,131.61,16.7543,0,0.000885,0,0
0:1:24.249,132.375,16.8577,0,0.000885,0,0
0:1:24.950,134.367,17.1059,0,0.000885,0,0
0:1:25.657,135.6,17.2645,0,0.000885,0,0
0:1:26.358,137.361,17.492,0,0.000885,0,0
0:1:27.055,138.3,17.6092,0,0.000885,0,0
0:1:27.753,140.057,17.8298,0,0.000885,0,0
0:1:28.446,141.173,17.9746,0,0.000885,0,0
0:1:29.144,142.405,18.1332,0,0.000885,0,0
0:1:29.853,143.927,18.3263,0,0.000885,0,0
0:1:30.558,145.51,18.5262,0,0.000885,0,0
0:1:31.257,146.449,18.6434,0,0.000885,0,0
0:1:31.953,147.801,18.8158,0,0.000885,0,0
0:1:32.648,149.616,19.0502,0,0.000885,0,0
0:1:33.347,151.142,19.2433,0,0.000885,0,0
0:1:34.051,152.374,19.4018,0,0.000885,0,0
0:1:34.754,153.134,19.4984,0,0.000885,0,0
0:1:35.461,154.78,19.7052,0,0.000885,0,0
0:1:36.162,156.07,19.8707,0,0.000885,0,0
0:1:36.860,157.596,20.0637,0,0.000885,0,0
0:1:37.560,159.18,20.2637,0,0.000885,0,0
0:1:38.251,160.47,20.4292,0,0.000885,0,0
0:1:38.951,161.817,20.6015,0,0.000885,0,0
0:1:39.647,163.343,20.7946,0,0.000885,0,0
0:1:40.357,164.397,20.9325,0,0.000885,0,0
0:1:41.061,166.039,21.1393,0,0.000885,0,0
0:1:41.759,166.977,21.2634,0,0.000885,0,0
0:1:42.452,168.619,21.4703,0,0.000885,0,0
0:1:43.153,169.909,21.6357,0,0.000885,0,0
0:1:43.847,171.728,21.8633,0,0.000885,0,0
0:1:44.539,172.551,21.9667,0,0.000885,0,0
0:1:45.251,174.659,22.2356,0,0.000885,0,0
0:1:45.956,175.598,22.3597,0,0.000885,0,0
0:1:46.654,177.244,22.5665,0,0.000885,0,0
0:1:47.354,178.414,22.7182,0,0.000885,0,0
0:1:48.045,179.41,22.8423,0,0.000885,0,0
0:1:48.753,180.762,23.0147,0,0.000885,0,0
0:1:49.454,182.168,23.194,0,0.000885,0,0
0:1:50.163,183.93,23.4215,0,0.000885,0,0
0:1:50.867,184.926,23.5456,0,0.000885,0,0
0:1:51.562,186.389,23.7318,0,0.000885,0,0
0:1:52.256,187.506,23.8765,0,0.000885,0,0
0:1:52.955,189.205,24.0903,0,0.000885,0,0
0:1:53.650,190.322,24.2351,0,0.000885,0,0
0:1:54.354,191.785,24.4212,0,0.000885,0,0
0:1:55.060,193.195,24.6005,0,0.000885,0,0
0:1:55.761,194.663,24.7867,0,0.000885,0,0
0:1:56.454,196.127,24.9728,0,0.000885,0,0
0:1:57.148,197.594,25.159,0,0.000885,0,0
0:1:57.844,199.058,25.3451,0,0.000885,0,0
0:1:58.548,200.29,25.5037,0,0.000885,0,0
0:1:59.250,201.349,25.6347,0,0.000885,0,0
0:1:59.948,202.932,25.8347,0,0.000885,0,0
0:2:0.650,204.338,26.0139,0,0.000885,0,0
0:2:1.350,205.864,26.2139,0,0.000885,0,0
0:2:2.048,206.744,26.3242,0,0.000885,0,0
0:2:2.751,208.208,26.5103,0,0.000885,0,0
0:2:3.450,209.56,26.6827,0,0.000885,0,0
0:2:4.152,210.73,26.8344,0,0.000885,0,0
0:2:4.857,212.256,27.0274,0,0.000885,0,0
0:2:5.560,213.724,27.2136,0,0.000885,0,0
0:2:6.252,215.481,27.4342,0,0.000885,0,0
0:2:6.943,217.006,27.6273,0,0.000885,0,0
0:2:7.640,218.003,27.7583,0,0.000885,0,0
0:2:8.332,219.177,27.9031,0,0.000885,0,0
0:2:9.054,220.761,28.1099,0,0.000885,0,0
0:2:9.753,222.109,28.2823,0,0.000885,0,0
0:2:10.456,223.577,28.4685,0,0.000885,0,0
0:2:11.152,224.573,28.5926,0,0.000885,0,0
0:2:11.854,226.099,28.7856,0,0.000885,0,0
0:2:12.547,227.562,28.9718,0,0.000885,0,0
0:2:13.246,228.852,29.1372,0,0.000885,0,0
0:2:13.948,230.026,29.2889,0,0.000885,0,0
0:2:14.641,231.961,29.5371,0,0.000885,0,0
0:2:15.347,233.02,29.6681,0,0.000885,0,0
0:2:16.049,233.959,29.7854,0,0.000885,0,0
0:2:16.750,235.071,29.9301,0,0.000885,0,0
0:2:17.447,236.361,30.0956,0,0.000885,0,0
0:2:18.141,237.944,30.2956,0,0.000885,0,0
0:2:18.852,239.119,30.4472,0,0.000885,0,0
0:2:19.552,240.115,30.5714,0,0.000885,0,0
0:2:20.257,241.463,30.7437,0,0.000885,0,0
0:2:20.959,242.579,30.8885,0,0.000885,0,0
0:2:21.653,243.634,31.0195,0,0.000885,0,0
0:2:22.349,244.456,31.1229,0,0.000885,0,0
0:2:23.052,245.982,31.316,0,0.000885,0,0
0:2:23.754,246.334,31.3643,0,0.000885,0,0
0:2:24.448,247.503,31.5159,0,0.000885,0,0
0:2:25.153,248.442,31.6331,0,0.000885,0,0
0:2:25.854,250.439,31.8883,0,0.000885,0,0
0:2:26.544,252.081,32.0951,0,0.000885,0,0
0:2:27.243,254.309,32.3778,0,0.000885,0,0
0:2:27.936,256.36,32.6398,0,0.000885,0,0
0:2:28.648,258.588,32.9225,0,0.000885,0,0
0:2:29.347,260.644,33.1845,0,0.000885,0,0
0:2:30.053,262.93,33.474,0,0.000885,0,0
0:2:30.753,264.571,33.6878,0,0.000885,0,0
0:2:31.450,266.391,33.9153,0,0.000885,0,0
0:2:32.153,268.152,34.1428,0,0.000885,0,0
0:2:32.849,268.383,34.1704,0,0.000885,0,0
0:2:33.552,269.206,34.2738,0,0.000885,0,0
0:2:34.254,270.381,34.4255,0,0.000885,0,0
0:2:34.952,271.608,34.5841,0,0.000885,0,0
0:2:35.655,272.667,34.7151,0,0.000885,0,0
0:2:36.352,273.192,34.7841,0,0.000885,0,0
0:2:37.052,274.424,34.9426,0,0.000885,0,0
0:2:37.755,275.541,35.0805,0,0.000885,0,0
0:2:38.452,276.653,35.2253,0,0.000885,0,0
0:2:39.153,276.773,35.2391,0,0.000885,0,0
0:2:39.856,276.537,35.2115,0,0.000885,0,0
0:2:40.556,275.95,35.1357,0,0.000885,0,0
0:2:41.257,274.953,35.0116,0,0.000885,0,0
0:2:41.945,272.547,34.7013,0,0.000885,0,0
0:2:42.642,271.844,34.6117,0,0.000885,0,0
0:2:43.345,268.619,34.2049,0,0.000885,0,0
0:2:44.055,264.162,33.6326,0,0.000885,0,0
0:2:44.752,263.633,33.5637,0,0.000885,0,0
0:2:45.454,263.339,33.5292,0,0.000885,0,0
0:2:46.157,261.404,33.281,0,0.000885,0,0
0:2:46.858,260.292,33.1431,0,0.000885,0,0
0:2:47.550,257.886,32.8328,0,0.000885,0,0
0:2:48.256,255.657,32.5501,0,0.000885,0,0
0:2:48.946,254.776,32.4398,0,0.000885,0,0
0:2:49.645,252.254,32.1158,0,0.000885,0,0
0:2:50.350,250.791,31.9296,0,0.000885,0,0
0:2:51.047,250.319,31.8745,0,0.000885,0,0
0:2:51.758,249.852,31.8124,0,0.000885,0,0
0:2:52.444,249.794,31.8055,0,0.000885,0,0
0:2:53.147,249.381,31.7504,0,0.000885,0,0
0:2:53.856,249.149,31.7228,0,0.000885,0,0
0:2:54.555,248.384,31.6263,0,0.000885,0,0
0:2:55.258,246.859,31.4332,0,0.000885,0,0
0:2:55.957,242.873,30.923,0,0.000885,0,0
0:2:56.648,240.818,30.661,0,0.000885,0,0
0:2:57.352,238.767,30.399,0,0.000885,0,0
0:2:58.057,236.245,30.0818,0,0.000885,0,0
0:2:58.747,235.658,30.006,0,0.000885,0,0
0:2:59.448,234.835,29.9026,0,0.000885,0,0
0:3:0.154,233.429,29.7233,0,0.000885,0,0
0:3:0.853,232.842,29.6475,0,0.000885,0,0
0:3:1.552,230.849,29.3924,0,0.000885,0,0
0:3:2.083,229.266,29.1924,0,0.000885,0,0