File: DataFile2021-06-06_060510.csv
Test ID:,Date Tested:,Time:,Test Type:,Diameter Avg. (mm):,Cyl. Corr. Factor:,Height (mm):,Age (days):,Weight (kN):,Break Type:,Ramp Rate (MPa/s):,Load at Break (kN):,Stress at Break (MPa):
12,6/6/2021,06:05,Cylinder,150,1,300,0,13.39,3,0.24,695.21,39.34
Sample Time,Load (kN),Stress (MPa),Long. Strain,Trans. Strain,Chan1 Deflection (mm),Chan2 Deflection (mm)
0:0:21.274,6.21861,0.351633,0,0.000885,0,0
0:0:21.980,16.8899,0.958371,0,0.000885,0,0
0:0:22.681,15.72,0.889424,0,0.000885,0,0
0:0:23.379,15.4843,0.875634,0,0.000885,0,0
0:0:24.080,16.365,0.923897,0,0.000885,0,0
0:0:24.783,18.3,1.03421,0,0.000885,0,0
0:0:25.482,22.6993,1.28242,0,0.000885,0,0
0:0:26.174,26.9206,1.52374,0,0.000885,0,0
0:0:26.884,30.2657,1.7099,0,0.000885,0,0
0:0:27.593,34.0156,1.92364,0,0.000885,0,0
0:0:28.296,36.6578,2.07532,0,0.000885,0,0
0:0:28.995,39.5892,2.2408,0,0.000885,0,0
0:0:29.688,42.0535,2.37869,0,0.000885,0,0
0:0:30.386,45.5142,2.57864,0,0.000885,0,0
0:0:31.085,48.6813,2.7579,0,0.000885,0,0
0:0:31.788,52.5513,2.97164,0,0.000885,0,0
0:0:32.497,54.9533,3.10954,0,0.000885,0,0
0:0:33.201,58.2406,3.29569,0,0.000885,0,0
0:0:33.895,60.527,3.42669,0,0.000885,0,0
0:0:34.594,64.1033,3.62664,0,0.000885,0,0
0:0:35.292,67.5062,3.8197,0,0.000885,0,0
0:0:35.987,70.3798,3.98517,0,0.000885,0,0
0:0:36.686,72.9597,4.12996,0,0.000885,0,0
0:0:37.395,76.3048,4.31612,0,0.000885,0,0
0:0:38.101,79.294,4.48849,0,0.000885,0,0
0:0:38.804,82.6969,4.68154,0,0.000885,0,0
0:0:39.497,86.042,4.8677,0,0.000885,0,0
0:0:40.195,88.7954,5.02628,0,0.000885,0,0
0:0:40.893,91.8469,5.19865,0,0.000885,0,0
0:0:41.587,94.4847,5.34344,0,0.000885,0,0
0:0:42.297,98.0032,5.54338,0,0.000885,0,0
0:0:43.006,101.406,5.73644,0,0.000885,0,0
0:0:43.704,104.867,5.93639,0,0.000885,0,0
0:0:44.405,106.922,6.0536,0,0.000885,0,0
0:0:45.099,110.32,6.23976,0,0.000885,0,0
0:0:45.796,113.136,6.40523,0,0.000885,0,0
0:0:46.496,116.833,6.61207,0,0.000885,0,0
0:0:47.209,119.706,6.77065,0,0.000885,0,0
0:0:47.914,122.873,6.94992,0,0.000885,0,0
0:0:48.612,126.392,7.14986,0,0.000885,0,0
0:0:49.305,128.972,7.30155,0,0.000885,0,0
0:0:50.005,131.965,7.46702,0,0.000885,0,0
0:0:50.701,135.542,7.66697,0,0.000885,0,0
0:0:51.394,138.3,7.82555,0,0.000885,0,0
0:0:52.104,141.64,8.0186,0,0.000885,0,0
0:0:52.811,144.572,8.18408,0,0.000885,0,0
0:0:53.511,148.032,8.37713,0,0.000885,0,0
0:0:54.210,151.377,8.56329,0,0.000885,0,0
0:0:54.905,154.015,8.71497,0,0.000885,0,0
0:0:55.601,157.067,8.88734,0,0.000885,0,0
0:0:56.299,159.882,9.04592,0,0.000885,0,0
0:0:57.000,163.165,9.23208,0,0.000885,0,0
0:0:57.708,165.923,9.39066,0,0.000885,0,0
0:0:58.415,169.615,9.5975,0,0.000885,0,0
0:0:59.109,172.845,9.78366,0,0.000885,0,0
0:0:59.807,175.66,9.94224,0,0.000885,0,0
0:1:0.504,178.472,10.1008,0,0.000885,0,0
0:1:1.198,181.701,10.2801,0,0.000885,0,0
0:1:1.897,184.575,10.4456,0,0.000885,0,0
0:1:2.608,188.093,10.6455,0,0.000885,0,0
0:1:3.313,191.024,10.811,0,0.000885,0,0
0:1:4.012,193.84,10.9696,0,0.000885,0,0
0:1:4.700,197.181,11.1557,0,0.000885,0,0
0:1:5.395,200.468,11.3419,0,0.000885,0,0
0:1:6.086,203.106,11.4936,0,0.000885,0,0
0:1:6.785,206.157,11.6659,0,0.000885,0,0
0:1:7.489,209.618,11.859,0,0.000885,0,0
0:1:8.186,212.607,12.0314,0,0.000885,0,0
0:1:8.890,215.249,12.183,0,0.000885,0,0
0:1:9.591,218.884,12.383,0,0.000885,0,0
0:1:10.289,221.464,12.5347,0,0.000885,0,0
0:1:10.985,224.751,12.7208,0,0.000885,0,0
0:1:11.689,227.976,12.9001,0,0.000885,0,0
0:1:12.393,231.143,13.0794,0,0.000885,0,0
0:1:13.095,234.604,13.2724,0,0.000885,0,0
0:1:13.783,237.184,13.4241,0,0.000885,0,0
0:1:14.476,239.821,13.5689,0,0.000885,0,0
0:1:15.177,243.398,13.7757,0,0.000885,0,0
0:1:15.875,246.801,13.9688,0,0.000885,0,0
0:1:16.593,249.852,14.1411,0,0.000885,0,0
0:1:17.298,252.841,14.3066,0,0.000885,0,0
0:1:18.002,255.599,14.4652,0,0.000885,0,0
0:1:18.696,258.709,14.6376,0,0.000885,0,0
0:1:19.384,262.401,14.8513,0,0.000885,0,0
0:1:20.088,265.274,15.0099,0,0.000885,0,0
0:1:20.789,267.916,15.1616,0,0.000885,0,0
0:1:21.489,271.084,15.3408,0,0.000885,0,0
0:1:22.196,273.721,15.4925,0,0.000885,0,0
0:1:22.897,278.063,15.7338,0,0.000885,0,0
0:1:23.592,280.701,15.8855,0,0.000885,0,0
0:1:24.285,283.752,16.0579,0,0.000885,0,0
0:1:24.985,286.506,16.2096,0,0.000885,0,0
0:1:25.689,289.263,16.3682,0,0.000885,0,0
0:1:26.389,292.608,16.5612,0,0.000885,0,0
0:1:27.091,296.007,16.7474,0,0.000885,0,0
0:1:27.793,298.823,16.9128,0,0.000885,0,0
0:1:28.489,302.403,17.1128,0,0.000885,0,0
0:1:29.181,305.393,17.2852,0,0.000885,0,0
0:1:29.886,308.618,17.4644,0,0.000885,0,0
0:1:30.586,310.966,17.5954,0,0.000885,0,0
0:1:31.291,314.427,17.7954,0,0.000885,0,0
0:1:31.995,317.825,17.9884,0,0.000885,0,0
0:1:32.701,321.055,18.1677,0,0.000885,0,0
0:1:33.402,323.635,18.3125,0,0.000885,0,0
0:1:34.090,326.566,18.4779,0,0.000885,0,0
0:1:34.786,329.262,18.6296,0,0.000885,0,0
0:1:35.488,333.723,18.8847,0,0.000885,0,0
0:1:36.186,336.01,19.0157,0,0.000885,0,0
0:1:36.891,339.644,19.2226,0,0.000885,0,0
0:1:37.592,343.047,19.4156,0,0.000885,0,0
0:1:38.286,345.453,19.5466,0,0.000885,0,0
0:1:38.991,348.385,19.7121,0,0.000885,0,0
0:1:39.690,351.961,19.919,0,0.000885,0,0
0:1:40.391,354.777,20.0775,0,0.000885,0,0
0:1:41.095,358.002,20.2568,0,0.000885,0,0
0:1:41.791,360.173,20.3809,0,0.000885,0,0
0:1:42.494,363.455,20.5671,0,0.000885,0,0
0:1:43.195,368.148,20.836,0,0.000885,0,0
0:1:43.882,370.906,20.9876,0,0.000885,0,0
0:1:44.588,373.428,21.1324,0,0.000885,0,0
0:1:45.289,376.653,21.3117,0,0.000885,0,0
0:1:45.988,378.824,21.4358,0,0.000885,0,0
0:1:46.692,382.285,21.6357,0,0.000885,0,0
0:1:47.398,385.861,21.8357,0,0.000885,0,0
0:1:48.099,389.38,22.0356,0,0.000885,0,0
0:1:48.795,392.489,22.208,0,0.000885,0,0
0:1:49.492,394.953,22.3528,0,0.000885,0,0
0:1:50.182,397.591,22.4976,0,0.000885,0,0
0:1:50.888,400.7,22.6769,0,0.000885,0,0
0:1:51.586,404.455,22.8906,0,0.000885,0,0
0:1:52.290,407.035,23.0354,0,0.000885,0,0
0:1:52.992,410.317,23.2215,0,0.000885,0,0
0:1:53.684,413.427,23.3939,0,0.000885,0,0
0:1:54.390,416.594,23.5732,0,0.000885,0,0
0:1:55.089,419.467,23.7386,0,0.000885,0,0
0:1:55.790,423.048,23.9386,0,0.000885,0,0
0:1:56.494,425.566,24.0834,0,0.000885,0,0
0:1:57.200,429.147,24.2833,0,0.000885,0,0
0:1:57.902,431.727,24.4281,0,0.000885,0,0
0:1:58.595,435.245,24.6281,0,0.000885,0,0
0:1:59.293,438.528,24.8142,0,0.000885,0,0
0:1:59.988,441.05,24.959,0,0.000885,0,0
0:2:0.689,444.217,25.1383,0,0.000885,0,0
0:2:1.388,447.327,25.3107,0,0.000885,0,0
0:2:2.093,450.378,25.483,0,0.000885,0,0
0:2:2.796,452.958,25.6347,0,0.000885,0,0
0:2:3.491,456.886,25.8553,0,0.000885,0,0
0:2:4.194,459.586,26.007,0,0.000885,0,0
0:2:4.893,462.926,26.1932,0,0.000885,0,0
0:2:5.594,466.156,26.3793,0,0.000885,0,0
0:2:6.297,468.616,26.5172,0,0.000885,0,0
0:2:6.992,472.721,26.7517,0,0.000885,0,0
0:2:7.698,475.657,26.9171,0,0.000885,0,0
0:2:8.398,478.589,27.0826,0,0.000885,0,0
0:2:9.094,481.52,27.2481,0,0.000885,0,0
0:2:9.790,484.687,27.4273,0,0.000885,0,0
0:2:10.491,487.619,27.5928,0,0.000885,0,0
0:2:11.178,490.203,27.7376,0,0.000885,0,0
0:2:11.881,493.953,27.9513,0,0.000885,0,0
0:2:12.584,497.591,28.1582,0,0.000885,0,0
0:2:13.290,500.287,28.3099,0,0.000885,0,0
0:2:13.996,503.103,28.4685,0,0.000885,0,0
0:2:14.693,505.918,28.627,0,0.000885,0,0
0:2:15.395,509.143,28.8132,0,0.000885,0,0
0:2:16.090,512.546,29.0062,0,0.000885,0,0
0:2:16.796,515.011,29.1441,0,0.000885,0,0
0:2:17.501,518.645,29.351,0,0.000885,0,0
0:2:18.201,521.403,29.5027,0,0.000885,0,0
0:2:18.890,524.921,29.7026,0,0.000885,0,0
0:2:19.594,528.266,29.8957,0,0.000885,0,0
0:2:20.295,531.843,30.0956,0,0.000885,0,0
0:2:20.994,534.129,30.2266,0,0.000885,0,0
0:2:21.697,536.709,30.3714,0,0.000885,0,0
0:2:22.403,540.228,30.5714,0,0.000885,0,0
0:2:23.106,543.337,30.7437,0,0.000885,0,0
0:2:23.799,546.855,30.9437,0,0.000885,0,0
0:2:24.497,549.44,31.0885,0,0.000885,0,0
0:2:25.199,552.487,31.2677,0,0.000885,0,0
0:2:25.893,556.005,31.4608,0,0.000885,0,0
0:2:26.590,558.292,31.5918,0,0.000885,0,0
0:2:27.296,561.815,31.7917,0,0.000885,0,0
0:2:27.998,564.92,31.971,0,0.000885,0,0
0:2:28.693,568.674,32.1778,0,0.000885,0,0
0:2:29.397,571.316,32.3295,0,0.000885,0,0
0:2:30.097,574.19,32.495,0,0.000885,0,0
0:2:30.787,576.943,32.6467,0,0.000885,0,0
0:2:31.493,580.23,32.8328,0,0.000885,0,0
0:2:32.198,583.455,33.019,0,0.000885,0,0
0:2:32.900,586.738,33.2052,0,0.000885,0,0
0:2:33.595,589.963,33.3844,0,0.000885,0,0
0:2:34.295,592.663,33.5361,0,0.000885,0,0
0:2:34.992,596.013,33.7292,0,0.000885,0,0
0:2:35.698,598.944,33.8946,0,0.000885,0,0
0:2:36.399,602.174,34.0739,0,0.000885,0,0
0:2:37.108,605.052,34.2394,0,0.000885,0,0
0:2:37.816,608.103,34.4117,0,0.000885,0,0
0:2:38.513,611.92,34.6255,0,0.000885,0,0
0:2:39.210,614.855,34.7909,0,0.000885,0,0
0:2:39.901,617.849,34.9633,0,0.000885,0,0
0:2:40.598,620.607,35.1219,0,0.000885,0,0
0:2:41.295,623.543,35.2874,0,0.000885,0,0
0:2:41.995,626.946,35.4804,0,0.000885,0,0
0:2:42.704,629.761,35.639,0,0.000885,0,0
0:2:43.404,633.284,35.8389,0,0.000885,0,0
0:2:44.099,635.984,35.9906,0,0.000885,0,0
0:2:44.797,638.92,36.1561,0,0.000885,0,0
0:2:45.500,642.092,36.3354,0,0.000885,0,0
0:2:46.193,644.498,36.4733,0,0.000885,0,0
0:2:46.892,648.137,36.6801,0,0.000885,0,0
0:2:47.601,651.891,36.887,0,0.000885,0,0
0:2:48.306,654.24,37.0248,0,0.000885,0,0
0:2:49.002,657.291,37.1972,0,0.000885,0,0
0:2:49.692,660.347,37.3696,0,0.000885,0,0
0:2:50.399,663.399,37.542,0,0.000885,0,0
0:2:51.094,666.041,37.6867,0,0.000885,0,0
0:2:51.808,669.738,37.9005,0,0.000885,0,0
0:2:52.513,673.203,38.0935,0,0.000885,0,0
0:2:53.213,675.783,38.2383,0,0.000885,0,0
0:2:53.910,678.896,38.4176,0,0.000885,0,0
0:2:54.606,681.597,38.5693,0,0.000885,0,0
0:2:55.298,684.999,38.7623,0,0.000885,0,0
0:2:55.996,686.877,38.8726,0,0.000885,0,0
0:2:56.703,689.755,39.0312,0,0.000885,0,0
0:2:57.412,692.806,39.2036,0,0.000885,0,0
0:2:58.117,694.741,39.3139,0,0.000885,0,0
0:2:58.808,695.213,39.3415,0,0.000885,0,0
0:2:59.502,691.867,39.1484,0,0.000885,0,0
0:3:0.197,679.07,38.4245,0,0.000885,0,0
0:3:0.897,644.498,36.4733,0,0.000885,0,0
0:3:1.590,604.758,34.2256,0,0.000885,0,0
0:3:2.295,566.094,32.033,0,0.000885,0,0
0:3:2.996,505.625,28.6132,0,0.000885,0,0
0:3:3.127,490.025,27.7307,0,0.000885,0,0