File: DataFile2021-06-08_071356.csv
Test ID:,Date Tested:,Time:,Test Type:,Diameter Avg. (mm):,Cyl. Corr. Factor:,Height (mm):,Age (days):,Weight (kN):,Break Type:,Ramp Rate (MPa/s):,Load at Break (kN):,Stress at Break (MPa):
12,6/8/2021,07:13,Cylinder,100,1,200,0,3.6,3,0.23,274.07,34.89
Sample Time,Load (kN),Stress (MPa),Long. Strain,Trans. Strain,Chan1 Deflection (mm),Chan2 Deflection (mm)
0:0:22.876,7.68208,0.979056,0,0.000885,0,0
0:0:23.470,14.3678,1.82711,0,0.000885,0,0
0:0:24.065,13.0199,1.65474,0,0.000885,0,0
0:0:24.660,12.6685,1.61337,0,0.000885,0,0
0:0:25.258,12.2015,1.55132,0,0.000885,0,0
0:0:25.852,12.4906,1.59269,0,0.000885,0,0
0:0:26.447,12.1392,1.54443,0,0.000885,0,0
0:0:27.041,13.4915,1.71679,0,0.000885,0,0
0:0:27.634,13.0778,1.66853,0,0.000885,0,0
0:0:28.230,14.8971,1.89606,0,0.000885,0,0
0:0:28.838,16.0714,2.04774,0,0.000885,0,0
0:0:29.445,17.655,2.24769,0,0.000885,0,0
0:0:30.050,18.945,2.41317,0,0.000885,0,0
0:0:30.647,21.1735,2.69585,0,0.000885,0,0
0:0:31.242,22.2278,2.82685,0,0.000885,0,0
0:0:31.843,23.1663,2.95096,0,0.000885,0,0
0:0:32.440,24.3407,3.09575,0,0.000885,0,0
0:0:33.039,24.87,3.16469,0,0.000885,0,0
0:0:33.649,26.3913,3.35775,0,0.000885,0,0
0:0:34.254,27.3877,3.48875,0,0.000885,0,0
0:0:34.853,28.7978,3.66801,0,0.000885,0,0
0:0:35.450,29.9098,3.80591,0,0.000885,0,0
0:0:36.050,31.2621,3.97827,0,0.000885,0,0
0:0:36.646,32.0227,4.0748,0,0.000885,0,0
0:0:37.241,33.4907,4.26096,0,0.000885,0,0
0:0:37.839,34.5449,4.39886,0,0.000885,0,0
0:0:38.447,35.6614,4.54365,0,0.000885,0,0
0:0:39.055,36.9514,4.70222,0,0.000885,0,0
0:0:39.660,38.1835,4.8608,0,0.000885,0,0
0:0:40.256,39.9406,5.08833,0,0.000885,0,0
0:0:40.851,40.5277,5.15728,0,0.000885,0,0
0:0:41.450,41.2306,5.24691,0,0.000885,0,0
0:0:42.048,42.6407,5.42617,0,0.000885,0,0
0:0:42.647,43.9306,5.59165,0,0.000885,0,0
0:0:43.245,45.4519,5.7847,0,0.000885,0,0
0:0:43.855,46.3905,5.90881,0,0.000885,0,0
0:0:44.459,47.507,6.0467,0,0.000885,0,0
0:0:45.062,48.9749,6.23286,0,0.000885,0,0
0:0:45.660,50.087,6.37765,0,0.000885,0,0
0:0:46.255,51.0255,6.49486,0,0.000885,0,0
0:0:46.850,52.2577,6.65344,0,0.000885,0,0
0:0:47.448,53.7256,6.8396,0,0.000885,0,0
0:0:48.045,54.5441,6.94302,0,0.000885,0,0
0:0:48.654,56.012,7.12918,0,0.000885,0,0
0:0:49.262,57.0084,7.26018,0,0.000885,0,0
0:0:49.865,58.0626,7.39118,0,0.000885,0,0
0:0:50.460,59.3526,7.55665,0,0.000885,0,0
0:0:51.059,60.4113,7.69455,0,0.000885,0,0
0:0:51.659,61.937,7.8876,0,0.000885,0,0
0:0:52.259,62.8712,8.00481,0,0.000885,0,0
0:0:52.855,64.0455,8.1565,0,0.000885,0,0
0:0:53.455,65.1042,8.2875,0,0.000885,0,0
0:0:54.064,66.452,8.45987,0,0.000885,0,0
0:0:54.669,67.2126,8.55639,0,0.000885,0,0
0:0:55.268,68.6227,8.73566,0,0.000885,0,0
0:0:55.864,70.2641,8.94939,0,0.000885,0,0
0:0:56.460,71.2605,9.0735,0,0.000885,0,0
0:0:57.056,72.2569,9.19761,0,0.000885,0,0
0:0:57.654,73.4312,9.34929,0,0.000885,0,0
0:0:58.252,74.312,9.45961,0,0.000885,0,0
0:0:58.862,75.9534,9.67334,0,0.000885,0,0
0:0:59.467,77.0654,9.81124,0,0.000885,0,0
0:1:0.070,78.4177,9.98361,0,0.000885,0,0
0:1:0.666,79.5876,10.1353,0,0.000885,0,0
0:1:1.265,80.5262,10.2525,0,0.000885,0,0
0:1:1.862,81.5226,10.3766,0,0.000885,0,0
0:1:2.462,82.9326,10.5559,0,0.000885,0,0
0:1:3.059,83.8712,10.68,0,0.000885,0,0
0:1:3.668,85.219,10.8523,0,0.000885,0,0
0:1:4.274,86.3934,10.9971,0,0.000885,0,0
0:1:4.874,87.6255,11.1557,0,0.000885,0,0
0:1:5.470,88.5018,11.266,0,0.000885,0,0
0:1:6.069,89.6183,11.4108,0,0.000885,0,0
0:1:6.667,91.2597,11.6177,0,0.000885,0,0
0:1:7.262,92.3139,11.7556,0,0.000885,0,0
0:1:7.860,93.6662,11.9279,0,0.000885,0,0
0:1:8.464,95.1875,12.121,0,0.000885,0,0
0:1:9.071,96.0104,12.2244,0,0.000885,0,0
0:1:9.675,96.8912,12.3347,0,0.000885,0,0
0:1:10.273,97.8876,12.4657,0,0.000885,0,0
0:1:10.870,99.2932,12.645,0,0.000885,0,0
0:1:11.465,100.703,12.8242,0,0.000885,0,0
0:1:12.062,101.878,12.969,0,0.000885,0,0
0:1:12.659,102.696,13.0725,0,0.000885,0,0
0:1:13.258,104.4,13.2931,0,0.000885,0,0
0:1:13.868,105.57,13.4448,0,0.000885,0,0
0:1:14.472,106.157,13.5137,0,0.000885,0,0
0:1:15.074,107.856,13.7344,0,0.000885,0,0
0:1:15.672,108.737,13.8447,0,0.000885,0,0
0:1:16.271,109.853,13.9895,0,0.000885,0,0
0:1:16.868,111.201,14.1618,0,0.000885,0,0
0:1:17.468,112.727,14.3549,0,0.000885,0,0
0:1:18.062,113.665,14.4721,0,0.000885,0,0
0:1:18.666,114.662,14.5962,0,0.000885,0,0
0:1:19.274,116.01,14.7686,0,0.000885,0,0
0:1:19.880,116.833,14.8789,0,0.000885,0,0
0:1:20.477,118.065,15.0306,0,0.000885,0,0
0:1:21.075,119.355,15.196,0,0.000885,0,0
0:1:21.671,120.938,15.396,0,0.000885,0,0
0:1:22.266,122.344,15.5753,0,0.000885,0,0
0:1:22.862,122.989,15.658,0,0.000885,0,0
0:1:23.469,123.927,15.7821,0,0.000885,0,0
0:1:24.076,125.395,15.9683,0,0.000885,0,0
0:1:24.681,126.507,16.1062,0,0.000885,0,0
0:1:25.276,127.797,16.2716,0,0.000885,0,0
0:1:25.873,128.798,16.3957,0,0.000885,0,0
0:1:26.470,129.737,16.5198,0,0.000885,0,0
0:1:27.069,131.32,16.7198,0,0.000885,0,0
0:1:27.666,132.317,16.8439,0,0.000885,0,0
0:1:28.266,133.607,17.0094,0,0.000885,0,0
0:1:28.875,134.719,17.1542,0,0.000885,0,0
0:1:29.479,135.951,17.3127,0,0.000885,0,0
0:1:30.080,136.947,17.4368,0,0.000885,0,0
0:1:30.678,138.593,17.6437,0,0.000885,0,0
0:1:31.276,139.821,17.8023,0,0.000885,0,0
0:1:31.874,140.528,17.8919,0,0.000885,0,0
0:1:32.470,142.112,18.0918,0,0.000885,0,0
0:1:33.064,142.521,18.147,0,0.000885,0,0
0:1:33.672,143.989,18.3332,0,0.000885,0,0
0:1:34.278,145.159,18.4848,0,0.000885,0,0
0:1:34.884,146.627,18.671,0,0.000885,0,0
0:1:35.482,147.623,18.7951,0,0.000885,0,0
0:1:36.078,149.265,19.002,0,0.000885,0,0
0:1:36.676,150.203,19.1261,0,0.000885,0,0
0:1:37.271,151.262,19.2571,0,0.000885,0,0
0:1:37.869,152.432,19.4087,0,0.000885,0,0
0:1:38.478,153.722,19.5742,0,0.000885,0,0
0:1:39.084,154.602,19.6845,0,0.000885,0,0
0:1:39.688,155.719,19.8293,0,0.000885,0,0
0:1:40.283,156.947,19.981,0,0.000885,0,0
0:1:40.881,158.65,20.2016,0,0.000885,0,0
0:1:41.480,159.353,20.2913,0,0.000885,0,0
0:1:42.080,160.643,20.4567,0,0.000885,0,0
0:1:42.675,161.817,20.6015,0,0.000885,0,0
0:1:43.274,162.756,20.7256,0,0.000885,0,0
0:1:43.884,164.282,20.9187,0,0.000885,0,0
0:1:44.490,165.22,21.0359,0,0.000885,0,0
0:1:45.090,166.626,21.2152,0,0.000885,0,0
0:1:45.688,167.507,21.3255,0,0.000885,0,0
0:1:46.286,169.148,21.5392,0,0.000885,0,0
0:1:46.881,170.674,21.7323,0,0.000885,0,0
0:1:47.478,171.786,21.8702,0,0.000885,0,0
0:1:48.074,172.96,22.0219,0,0.000885,0,0
0:1:48.682,173.605,22.1046,0,0.000885,0,0
0:1:49.290,174.486,22.2149,0,0.000885,0,0
0:1:49.895,175.482,22.3459,0,0.000885,0,0
0:1:50.510,177.533,22.601,0,0.000885,0,0
0:1:51.125,178.182,22.6838,0,0.000885,0,0
0:1:51.725,179.882,22.9044,0,0.000885,0,0
0:1:52.323,180.469,22.9802,0,0.000885,0,0
0:1:52.922,182.052,23.1802,0,0.000885,0,0
0:1:53.520,183.107,23.3112,0,0.000885,0,0
0:1:54.129,184.397,23.4766,0,0.000885,0,0
0:1:54.734,185.513,23.6214,0,0.000885,0,0
0:1:55.334,186.803,23.7869,0,0.000885,0,0
0:1:55.932,187.679,23.8972,0,0.000885,0,0
0:1:56.528,188.68,24.0213,0,0.000885,0,0
0:1:57.125,190.379,24.242,0,0.000885,0,0
0:1:57.721,191.434,24.373,0,0.000885,0,0
0:1:58.324,193.017,24.5729,0,0.000885,0,0
0:1:58.928,194.134,24.7177,0,0.000885,0,0
0:1:59.530,195.246,24.8625,0,0.000885,0,0
0:2:0.124,196.069,24.9659,0,0.000885,0,0
0:2:0.712,196.892,25.0693,0,0.000885,0,0
0:2:1.305,198.297,25.2486,0,0.000885,0,0
0:2:1.895,199.529,25.4072,0,0.000885,0,0
0:2:2.488,200.641,25.5451,0,0.000885,0,0
0:2:3.082,202.167,25.7381,0,0.000885,0,0
0:2:3.687,202.99,25.8484,0,0.000885,0,0
0:2:4.289,204.925,26.0898,0,0.000885,0,0
0:2:4.887,205.922,26.2208,0,0.000885,0,0
0:2:5.479,207.212,26.3862,0,0.000885,0,0
0:2:6.071,207.563,26.4276,0,0.000885,0,0
0:2:6.665,208.795,26.5862,0,0.000885,0,0
0:2:7.257,209.912,26.7241,0,0.000885,0,0
0:2:7.851,211.259,26.8964,0,0.000885,0,0
0:2:8.449,211.847,26.9723,0,0.000885,0,0
0:2:9.053,213.666,27.2067,0,0.000885,0,0
0:2:9.655,214.894,27.3584,0,0.000885,0,0
0:2:10.251,216.01,27.5032,0,0.000885,0,0
0:2:10.844,217.006,27.6273,0,0.000885,0,0
0:2:11.435,218.59,27.8341,0,0.000885,0,0
0:2:12.028,219.177,27.9031,0,0.000885,0,0
0:2:12.621,220.583,28.0823,0,0.000885,0,0
0:2:13.225,221.935,28.2547,0,0.000885,0,0
0:2:13.829,223.167,28.4133,0,0.000885,0,0
0:2:14.431,223.928,28.5098,0,0.000885,0,0
0:2:15.028,225.102,28.6615,0,0.000885,0,0
0:2:15.620,226.334,28.8201,0,0.000885,0,0
0:2:16.225,227.74,28.9993,0,0.000885,0,0
0:2:16.817,229.03,29.1579,0,0.000885,0,0
0:2:17.412,230.556,29.3579,0,0.000885,0,0
0:2:18.013,231.494,29.4751,0,0.000885,0,0
0:2:18.611,232.491,29.5992,0,0.000885,0,0
0:2:19.216,233.078,29.675,0,0.000885,0,0
0:2:19.820,234.955,29.9164,0,0.000885,0,0
0:2:20.424,236.009,30.0474,0,0.000885,0,0
0:2:21.024,237.241,30.2059,0,0.000885,0,0
0:2:21.615,238.589,30.3783,0,0.000885,0,0
0:2:22.206,239.47,30.4886,0,0.000885,0,0
0:2:22.800,240.466,30.6196,0,0.000885,0,0
0:2:23.403,241.756,30.7782,0,0.000885,0,0
0:2:24.005,242.931,30.9299,0,0.000885,0,0
0:2:24.604,244.043,31.0747,0,0.000885,0,0
0:2:25.212,244.981,31.1919,0,0.000885,0,0
0:2:25.807,246.04,31.3298,0,0.000885,0,0
0:2:26.410,247.681,31.5366,0,0.000885,0,0
0:2:27.006,248.793,31.6745,0,0.000885,0,0
0:2:27.616,250.146,31.8469,0,0.000885,0,0
0:2:28.215,251.084,31.971,0,0.000885,0,0
0:2:28.818,252.432,32.1434,0,0.000885,0,0
0:2:29.421,253.722,32.3019,0,0.000885,0,0
0:2:30.013,255.012,32.4674,0,0.000885,0,0
0:2:30.628,255.893,32.5846,0,0.000885,0,0
0:2:31.218,257.298,32.757,0,0.000885,0,0
0:2:31.809,258.709,32.9363,0,0.000885,0,0
0:2:32.402,260.114,33.1155,0,0.000885,0,0
0:2:32.997,260.408,33.1569,0,0.000885,0,0
0:2:33.599,261.111,33.2465,0,0.000885,0,0
0:2:34.202,262.93,33.474,0,0.000885,0,0
0:2:34.799,263.869,33.5982,0,0.000885,0,0
0:2:35.409,264.456,33.674,0,0.000885,0,0
0:2:36.009,265.688,33.8257,0,0.000885,0,0
0:2:36.603,266.858,33.9774,0,0.000885,0,0
0:2:37.217,267.681,34.0808,0,0.000885,0,0
0:2:37.823,268.797,34.2256,0,0.000885,0,0
0:2:38.425,270.025,34.3842,0,0.000885,0,0
0:2:39.031,271.141,34.522,0,0.000885,0,0
0:2:39.632,272.196,34.6599,0,0.000885,0,0
0:2:40.227,272.961,34.7565,0,0.000885,0,0
0:2:40.830,273.837,34.8668,0,0.000885,0,0
0:2:41.425,274.073,34.8944,0,0.000885,0,0
0:2:42.014,273.721,34.853,0,0.000885,0,0
0:2:42.604,271.729,34.5979,0,0.000885,0,0
0:2:43.202,267.329,34.0394,0,0.000885,0,0
0:2:43.804,259.354,33.019,0,0.000885,0,0
0:2:44.404,243.576,31.0126,0,0.000885,0,0
0:2:44.996,227.976,29.0269,0,0.000885,0,0
0:2:45.586,216.655,27.5859,0,0.000885,0,0
0:2:46.177,202.287,25.7588,0,0.000885,0,0
0:2:46.452,195.188,24.8556,0,0.000885,0,0