File: DataFile2021-07-17_062359.csv
Test ID:,Date Tested:,Time:,Test Type:,Diameter Avg. (mm):,Cyl. Corr. Factor:,Height (mm):,Age (days):,Weight (kN):,Break Type:,Ramp Rate (MPa/s):,Load at Break (kN):,Stress at Break (MPa):
12,7/17/2021,06:23,Cylinder,100,1,200,0,3.6,3,0.22,500.29,63.7
Sample Time,Load (kN),Stress (MPa),Long. Strain,Trans. Strain,Chan1 Deflection (mm),Chan2 Deflection (mm)
0:0:6.763,5.57362,0.71016,0,0.000885,0,0
0:0:7.954,7.86001,0.99974,0,0.000885,0,0
0:0:9.144,9.85281,1.25485,0,0.000885,0,0
0:0:10.339,11.9079,1.51685,0,0.000885,0,0
0:0:11.532,14.0742,1.79264,0,0.000885,0,0
0:0:12.742,16.5385,2.1029,0,0.000885,0,0
0:0:13.947,19.0028,2.42006,0,0.000885,0,0
0:0:15.137,21.5828,2.75101,0,0.000885,0,0
0:0:16.333,24.3985,3.10954,0,0.000885,0,0
0:0:17.538,26.9785,3.43359,0,0.000885,0,0
0:0:18.742,29.4428,3.75075,0,0.000885,0,0
0:0:19.938,31.5557,4.01964,0,0.000885,0,0
0:0:21.133,33.2549,4.23338,0,0.000885,0,0
0:0:22.333,35.777,4.55743,0,0.000885,0,0
0:0:23.544,38.4148,4.88838,0,0.000885,0,0
0:0:24.738,40.7057,5.18486,0,0.000885,0,0
0:0:25.930,42.9921,5.47444,0,0.000885,0,0
0:0:27.127,45.3363,5.77091,0,0.000885,0,0
0:0:28.338,47.6227,6.06049,0,0.000885,0,0
0:0:29.536,49.7934,6.34318,0,0.000885,0,0
0:0:30.734,52.1421,6.63965,0,0.000885,0,0
0:0:31.925,54.5441,6.94302,0,0.000885,0,0
0:0:33.135,57.3598,7.30155,0,0.000885,0,0
0:0:34.340,59.7663,7.61181,0,0.000885,0,0
0:0:35.531,62.0527,7.90139,0,0.000885,0,0
0:0:36.724,63.9298,8.14271,0,0.000885,0,0
0:0:37.940,66.3942,8.45297,0,0.000885,0,0
0:0:39.140,68.9163,8.77703,0,0.000885,0,0
0:0:40.334,70.789,9.01145,0,0.000885,0,0
0:0:41.531,73.3111,9.3355,0,0.000885,0,0
0:0:42.736,76.1891,9.70092,0,0.000885,0,0
0:0:43.938,78.2976,9.96982,0,0.000885,0,0
0:0:45.136,80.2326,10.218,0,0.000885,0,0
0:0:46.327,82.4033,10.4938,0,0.000885,0,0
0:0:47.529,85.3347,10.8661,0,0.000885,0,0
0:0:48.740,87.0384,11.0799,0,0.000885,0,0
0:0:49.932,90.2055,11.4867,0,0.000885,0,0
0:0:51.125,92.434,11.7694,0,0.000885,0,0
0:0:52.330,94.5425,12.0382,0,0.000885,0,0
0:0:53.537,96.949,12.3416,0,0.000885,0,0
0:0:54.730,99.5868,12.6795,0,0.000885,0,0
0:0:55.927,101.526,12.9277,0,0.000885,0,0
0:0:57.124,104.515,13.3069,0,0.000885,0,0
0:0:58.334,106.508,13.562,0,0.000885,0,0
0:0:59.532,108.621,13.8309,0,0.000885,0,0
0:1:0.723,111.201,14.1618,0,0.000885,0,0
0:1:1.915,113.256,14.4169,0,0.000885,0,0
0:1:3.128,116.245,14.803,0,0.000885,0,0
0:1:4.327,118.238,15.0581,0,0.000885,0,0
0:1:5.519,120.058,15.2857,0,0.000885,0,0
0:1:6.716,122.989,15.658,0,0.000885,0,0
0:1:7.932,125.453,15.9752,0,0.000885,0,0
0:1:9.136,127.918,16.2854,0,0.000885,0,0
0:1:10.333,129.852,16.5336,0,0.000885,0,0
0:1:11.526,132.023,16.8094,0,0.000885,0,0
0:1:12.736,134.719,17.1542,0,0.000885,0,0
0:1:13.938,137.655,17.5265,0,0.000885,0,0
0:1:15.131,139.354,17.7402,0,0.000885,0,0
0:1:16.324,141.818,18.0574,0,0.000885,0,0
0:1:17.530,144.22,18.3607,0,0.000885,0,0
0:1:18.738,146.217,18.6158,0,0.000885,0,0
0:1:19.930,149.149,18.9882,0,0.000885,0,0
0:1:21.127,151.377,19.2708,0,0.000885,0,0
0:1:22.323,153.49,19.5397,0,0.000885,0,0
0:1:23.536,156.128,19.8776,0,0.000885,0,0
0:1:24.732,158.063,20.1258,0,0.000885,0,0
0:1:25.924,160.643,20.4567,0,0.000885,0,0
0:1:27.117,163.281,20.7877,0,0.000885,0,0
0:1:28.331,165.278,21.0428,0,0.000885,0,0
0:1:29.532,167.68,21.3531,0,0.000885,0,0
0:1:30.727,170.38,21.6909,0,0.000885,0,0
0:1:31.923,172.315,21.9391,0,0.000885,0,0
0:1:33.136,174.953,22.277,0,0.000885,0,0
0:1:34.332,176.95,22.5321,0,0.000885,0,0
0:1:35.528,179.824,22.8975,0,0.000885,0,0
0:1:36.720,181.639,23.125,0,0.000885,0,0
0:1:37.930,184.397,23.4766,0,0.000885,0,0
0:1:39.133,186.745,23.78,0,0.000885,0,0
0:1:40.324,189.147,24.0834,0,0.000885,0,0
0:1:41.513,190.967,24.3178,0,0.000885,0,0
0:1:42.730,193.489,24.635,0,0.000885,0,0
0:1:43.930,195.717,24.9177,0,0.000885,0,0
0:1:45.117,198.297,25.2486,0,0.000885,0,0
0:1:46.312,200.935,25.5864,0,0.000885,0,0
0:1:47.522,203.457,25.9036,0,0.000885,0,0
0:1:48.717,205.334,26.1449,0,0.000885,0,0
0:1:49.923,207.683,26.4414,0,0.000885,0,0
0:1:51.116,209.734,26.7034,0,0.000885,0,0
0:1:52.320,212.665,27.0757,0,0.000885,0,0
0:1:53.524,214.778,27.3446,0,0.000885,0,0
0:1:54.720,217.242,27.6618,0,0.000885,0,0
0:1:55.910,219.644,27.9651,0,0.000885,0,0
0:1:57.108,222.287,28.303,0,0.000885,0,0
0:1:58.313,224.101,28.5305,0,0.000885,0,0
0:1:59.512,226.45,28.8339,0,0.000885,0,0
0:2:0.723,228.736,29.1235,0,0.000885,0,0
0:2:1.922,231.259,29.4475,0,0.000885,0,0
0:2:3.125,233.487,29.7302,0,0.000885,0,0
0:2:4.320,235.951,30.0405,0,0.000885,0,0
0:2:5.509,238.416,30.3576,0,0.000885,0,0
0:2:6.721,241.169,30.7092,0,0.000885,0,0
0:2:7.928,243.224,30.9712,0,0.000885,0,0
0:2:9.120,245.395,31.247,0,0.000885,0,0
0:2:10.318,247.566,31.5228,0,0.000885,0,0
0:2:11.510,250.204,31.8538,0,0.000885,0,0
0:2:12.713,252.374,32.1365,0,0.000885,0,0
0:2:13.907,255.07,32.4743,0,0.000885,0,0
0:2:15.122,257.183,32.7432,0,0.000885,0,0
0:2:16.325,259.469,33.0397,0,0.000885,0,0
0:2:17.531,261.934,33.3499,0,0.000885,0,0
0:2:18.731,264.278,33.6464,0,0.000885,0,0
0:2:19.925,266.742,33.9636,0,0.000885,0,0
0:2:21.123,269.149,34.2669,0,0.000885,0,0
0:2:22.321,271.084,34.5152,0,0.000885,0,0
0:2:23.526,273.837,34.8668,0,0.000885,0,0
0:2:24.714,276.421,35.1977,0,0.000885,0,0
0:2:25.920,278.178,35.4184,0,0.000885,0,0
0:2:27.123,280.821,35.7562,0,0.000885,0,0
0:2:28.327,283.401,36.0803,0,0.000885,0,0
0:2:29.526,285.393,36.3354,0,0.000885,0,0
0:2:30.709,288.031,36.6732,0,0.000885,0,0
0:2:31.907,290.144,36.9421,0,0.000885,0,0
0:2:33.113,292.488,37.2386,0,0.000885,0,0
0:2:34.322,294.659,37.5144,0,0.000885,0,0
0:2:35.522,297.533,37.8798,0,0.000885,0,0
0:2:36.725,299.939,38.1901,0,0.000885,0,0
0:2:37.925,301.816,38.4314,0,0.000885,0,0
0:2:39.117,304.16,38.7279,0,0.000885,0,0
0:2:40.323,306.683,39.045,0,0.000885,0,0
0:2:41.527,309.441,39.3966,0,0.000885,0,0
0:2:42.724,311.376,39.6449,0,0.000885,0,0
0:2:43.922,314.427,40.031,0,0.000885,0,0
0:2:45.125,315.833,40.2102,0,0.000885,0,0
0:2:46.323,318.591,40.5619,0,0.000885,0,0
0:2:47.520,320.468,40.8032,0,0.000885,0,0
0:2:48.726,322.928,41.1134,0,0.000885,0,0
0:2:49.924,325.628,41.4582,0,0.000885,0,0
0:2:51.115,327.798,41.734,0,0.000885,0,0
0:2:52.325,330.32,42.058,0,0.000885,0,0
0:2:53.525,332.843,42.3821,0,0.000885,0,0
0:2:54.717,334.951,42.651,0,0.000885,0,0
0:2:55.928,337.473,42.9681,0,0.000885,0,0
0:2:57.124,339.586,43.237,0,0.000885,0,0
0:2:58.328,342.286,43.5818,0,0.000885,0,0
0:2:59.526,343.985,43.7955,0,0.000885,0,0
0:3:0.728,346.508,44.1196,0,0.000885,0,0
0:3:1.913,349.03,44.4367,0,0.000885,0,0
0:3:3.118,351.494,44.7539,0,0.000885,0,0
0:3:4.326,353.66,45.0297,0,0.000885,0,0
0:3:5.526,356.538,45.3951,0,0.000885,0,0
0:3:6.729,358.705,45.6709,0,0.000885,0,0
0:3:7.930,360.524,45.9053,0,0.000885,0,0
0:3:9.122,363.224,46.25,0,0.000885,0,0
0:3:10.327,365.395,46.5258,0,0.000885,0,0
0:3:11.521,368.09,46.8637,0,0.000885,0,0
0:3:12.730,370.497,47.1739,0,0.000885,0,0
0:3:13.925,372.547,47.4359,0,0.000885,0,0
0:3:15.119,374.896,47.7324,0,0.000885,0,0
0:3:16.314,377.183,48.022,0,0.000885,0,0
0:3:17.515,379.878,48.3667,0,0.000885,0,0
0:3:18.719,382.342,48.6839,0,0.000885,0,0
0:3:19.929,384.398,48.9459,0,0.000885,0,0
0:3:21.130,386.857,49.2561,0,0.000885,0,0
0:3:22.326,389.264,49.5595,0,0.000885,0,0
0:3:23.526,391.377,49.8284,0,0.000885,0,0
0:3:24.728,393.427,50.0904,0,0.000885,0,0
0:3:25.919,396.127,50.4351,0,0.000885,0,0
0:3:27.127,398.294,50.7109,0,0.000885,0,0
0:3:28.333,400.585,51.0005,0,0.000885,0,0
0:3:29.520,402.987,51.3108,0,0.000885,0,0
0:3:30.719,405.273,51.6004,0,0.000885,0,0
0:3:31.922,408.147,51.9658,0,0.000885,0,0
0:3:33.127,410.553,52.276,0,0.000885,0,0
0:3:34.319,412.315,52.4967,0,0.000885,0,0
0:3:35.520,415.246,52.869,0,0.000885,0,0
0:3:36.728,417.648,53.1793,0,0.000885,0,0
0:3:37.934,419.819,53.4551,0,0.000885,0,0
0:3:39.123,422.283,53.7653,0,0.000885,0,0
0:3:40.309,424.396,54.0342,0,0.000885,0,0
0:3:41.524,427.149,54.3858,0,0.000885,0,0
0:3:42.735,429.147,54.641,0,0.000885,0,0
0:3:43.930,431.669,54.965,0,0.000885,0,0
0:3:45.125,433.955,55.2546,0,0.000885,0,0
0:3:46.330,436.477,55.5717,0,0.000885,0,0
0:3:47.534,438.003,55.7648,0,0.000885,0,0
0:3:48.737,441.17,56.1716,0,0.000885,0,0
0:3:49.918,443.341,56.4474,0,0.000885,0,0
0:3:51.123,446.214,56.8128,0,0.000885,0,0
0:3:52.320,447.972,57.0403,0,0.000885,0,0
0:3:53.525,450.436,57.3506,0,0.000885,0,0
0:3:54.711,452.549,57.6195,0,0.000885,0,0
0:3:55.899,455.187,57.9573,0,0.000885,0,0
0:3:57.088,457.064,58.1918,0,0.000885,0,0
0:3:58.295,459.937,58.5641,0,0.000885,0,0
0:3:59.482,461.636,58.7778,0,0.000885,0,0
0:4:0.668,463.985,59.0743,0,0.000885,0,0
0:4:1.851,466.387,59.3845,0,0.000885,0,0
0:4:3.056,468.678,59.6741,0,0.000885,0,0
0:4:4.247,471.316,60.012,0,0.000885,0,0
0:4:5.428,473.251,60.2533,0,0.000885,0,0
0:4:6.636,475.889,60.5911,0,0.000885,0,0
0:4:7.833,478.295,60.9014,0,0.000885,0,0
0:4:9.026,480.466,61.1772,0,0.000885,0,0
0:4:10.224,482.516,61.4392,0,0.000885,0,0
0:4:11.432,485.274,61.7839,0,0.000885,0,0
0:4:12.634,487.387,62.0528,0,0.000885,0,0
0:4:13.836,490.083,62.3976,0,0.000885,0,0
0:4:15.031,490.434,62.4458,0,0.000885,0,0
0:4:16.228,490.906,62.501,0,0.000885,0,0
0:4:17.425,493.659,62.8526,0,0.000885,0,0
0:4:18.625,496.768,63.2525,0,0.000885,0,0
0:4:19.839,499.117,63.549,0,0.000885,0,0
0:4:21.035,499.993,63.6593,0,0.000885,0,0
0:4:22.217,500.114,63.6731,0,0.000885,0,0
0:4:23.420,498.179,63.4318,0,0.000885,0,0
0:4:24.626,493.721,62.8595,0,0.000885,0,0
0:4:25.827,491.373,62.563,0,0.000885,0,0
0:4:27.026,489.496,62.3217,0,0.000885,0,0
0:4:28.229,487.209,62.0321,0,0.000885,0,0
0:4:29.438,482.93,61.4874,0,0.000885,0,0
0:4:30.618,478.646,60.9428,0,0.000885,0,0
0:4:31.824,478.353,60.9083,0,0.000885,0,0
0:4:33.024,481.111,61.2599,0,0.000885,0,0
0:4:34.221,482.516,61.4392,0,0.000885,0,0
0:4:35.414,482.868,61.4806,0,0.000885,0,0
0:4:36.593,483.926,61.6184,0,0.000885,0,0
0:4:37.795,484.571,61.6943,0,0.000885,0,0
0:4:38.983,481.053,61.2461,0,0.000885,0,0
0:4:40.165,475.479,60.5429,0,0.000885,0,0
0:4:41.351,473.838,60.3291,0,0.000885,0,0
0:4:42.548,459.586,58.5158,0,0.000885,0,0
0:4:43.740,359.234,45.7398,0,0.000885,0,0
0:4:43.851,359.234,45.7398,0,0.000885,0,0