File: DataFile2021-07-15_064454.csv
Test ID:,Date Tested:,Time:,Test Type:,Diameter Avg. (mm):,Cyl. Corr. Factor:,Height (mm):,Age (days):,Weight (kN):,Break Type:,Ramp Rate (MPa/s):,Load at Break (kN):,Stress at Break (MPa):
12,7/15/2021,06:44,Cylinder,150,1,300,0,3.6,3,0.24,1402.3,79.35
Sample Time,Load (kN),Stress (MPa),Long. Strain,Trans. Strain,Chan1 Deflection (mm),Chan2 Deflection (mm)
0:0:4.141,5.21776,0.296475,0,0.000885,0,0
0:0:5.544,10.262,0.57916,0,0.000885,0,0
0:0:6.951,17.1835,0.972161,0,0.000885,0,0
0:0:8.352,22.9306,1.29621,0,0.000885,0,0
0:0:9.763,29.9098,1.68922,0,0.000885,0,0
0:0:11.175,37.5964,2.13048,0,0.000885,0,0
0:0:12.571,43.3435,2.45453,0,0.000885,0,0
0:0:13.963,49.3263,2.79238,0,0.000885,0,0
0:0:15.372,54.6642,3.09575,0,0.000885,0,0
0:0:16.778,61.3499,3.47496,0,0.000885,0,0
0:0:18.171,67.742,3.83349,0,0.000885,0,0
0:0:19.564,73.4312,4.15754,0,0.000885,0,0
0:0:20.981,79.7077,4.50917,0,0.000885,0,0
0:0:22.378,85.9218,4.8608,0,0.000885,0,0
0:0:23.770,92.1405,5.21244,0,0.000885,0,0
0:0:25.179,98.8261,5.59165,0,0.000885,0,0
0:0:26.581,104.689,5.9226,0,0.000885,0,0
0:0:27.976,110.205,6.23286,0,0.000885,0,0
0:0:29.368,116.775,6.60518,0,0.000885,0,0
0:0:30.786,122.758,6.94992,0,0.000885,0,0
0:0:32.185,129.265,7.31534,0,0.000885,0,0
0:0:33.579,135.715,7.68076,0,0.000885,0,0
0:0:34.979,141.347,7.99792,0,0.000885,0,0
0:0:36.390,147.859,8.37024,0,0.000885,0,0
0:0:37.787,154.429,8.73566,0,0.000885,0,0
0:0:39.177,159.825,9.04592,0,0.000885,0,0
0:0:40.593,165.803,9.38376,0,0.000885,0,0
0:0:41.991,172.609,9.76987,0,0.000885,0,0
0:0:43.385,178.534,10.1008,0,0.000885,0,0
0:0:44.786,184.454,10.4387,0,0.000885,0,0
0:0:46.196,191.082,10.811,0,0.000885,0,0
0:0:47.584,197.065,11.1488,0,0.000885,0,0
0:0:48.964,203.515,11.5142,0,0.000885,0,0
0:0:50.365,209.912,11.8797,0,0.000885,0,0
0:0:51.760,215.774,12.2106,0,0.000885,0,0
0:0:53.151,221.521,12.5347,0,0.000885,0,0
0:0:54.555,228.091,12.907,0,0.000885,0,0
0:0:55.962,234.484,13.2724,0,0.000885,0,0
0:0:57.361,239.937,13.5758,0,0.000885,0,0
0:0:58.752,246.801,13.9688,0,0.000885,0,0
0:1:0.151,252.726,14.2997,0,0.000885,0,0
0:1:1.551,258.824,14.6445,0,0.000885,0,0
0:1:2.937,265.101,15.003,0,0.000885,0,0
0:1:4.319,271.319,15.3546,0,0.000885,0,0
0:1:5.726,277.124,15.6787,0,0.000885,0,0
0:1:7.114,283.868,16.0648,0,0.000885,0,0
0:1:8.497,289.441,16.3819,0,0.000885,0,0
0:1:9.887,295.833,16.7405,0,0.000885,0,0
0:1:11.289,301.99,17.0921,0,0.000885,0,0
0:1:12.676,308.208,17.4437,0,0.000885,0,0
0:1:14.054,314.249,17.7816,0,0.000885,0,0
0:1:15.461,320.174,18.1194,0,0.000885,0,0
0:1:16.861,326.566,18.4779,0,0.000885,0,0
0:1:18.248,332.843,18.8365,0,0.000885,0,0
0:1:19.638,338.825,19.1743,0,0.000885,0,0
0:1:21.041,344.924,19.5191,0,0.000885,0,0
0:1:22.434,351.023,19.8638,0,0.000885,0,0
0:1:23.813,357.299,20.2223,0,0.000885,0,0
0:1:25.212,363.046,20.5464,0,0.000885,0,0
0:1:26.609,369.558,20.9118,0,0.000885,0,0
0:1:27.988,376.066,21.2841,0,0.000885,0,0
0:1:29.378,381.582,21.5944,0,0.000885,0,0
0:1:30.785,387.974,21.9529,0,0.000885,0,0
0:1:32.167,394.424,22.3183,0,0.000885,0,0
0:1:33.559,400.407,22.6562,0,0.000885,0,0
0:1:34.958,406.038,22.9802,0,0.000885,0,0
0:1:36.366,412.666,23.3525,0,0.000885,0,0
0:1:37.766,418.822,23.6973,0,0.000885,0,0
0:1:39.168,424.921,24.0489,0,0.000885,0,0
0:1:40.573,431.317,24.4074,0,0.000885,0,0
0:1:41.962,436.944,24.7246,0,0.000885,0,0
0:1:43.350,443.279,25.0831,0,0.000885,0,0
0:1:44.751,450.027,25.4692,0,0.000885,0,0
0:1:46.145,456.067,25.8071,0,0.000885,0,0
0:1:47.549,461.699,26.1242,0,0.000885,0,0
0:1:48.942,467.677,26.4621,0,0.000885,0,0
0:1:50.349,474.305,26.8413,0,0.000885,0,0
0:1:51.757,480.114,27.1722,0,0.000885,0,0
0:1:53.162,486.974,27.5583,0,0.000885,0,0
0:1:54.563,492.721,27.8824,0,0.000885,0,0
0:1:55.958,499.704,28.2754,0,0.000885,0,0
0:1:57.356,505.683,28.6132,0,0.000885,0,0
0:1:58.748,511.372,28.9373,0,0.000885,0,0
0:2:0.169,517.942,29.3096,0,0.000885,0,0
0:2:1.558,524.103,29.6612,0,0.000885,0,0
0:2:2.944,530.259,30.006,0,0.000885,0,0
0:2:4.325,535.77,30.3162,0,0.000885,0,0
0:2:5.732,542.283,30.6886,0,0.000885,0,0
0:2:7.119,547.794,30.9988,0,0.000885,0,0
0:2:8.502,553.897,31.3436,0,0.000885,0,0
0:2:9.904,561.579,31.7779,0,0.000885,0,0
0:2:11.293,567.326,32.102,0,0.000885,0,0
0:2:12.680,573.251,32.4398,0,0.000885,0,0
0:2:14.059,579.114,32.7708,0,0.000885,0,0
0:2:15.466,585.097,33.1086,0,0.000885,0,0
0:2:16.864,591.667,33.4809,0,0.000885,0,0
0:2:18.264,597.361,33.805,0,0.000885,0,0
0:2:19.660,604.055,34.1842,0,0.000885,0,0
0:2:21.069,609.687,34.5014,0,0.000885,0,0
0:2:22.460,616.03,34.8599,0,0.000885,0,0
0:2:23.859,623.129,35.2598,0,0.000885,0,0
0:2:25.272,628.823,35.5838,0,0.000885,0,0
0:2:26.667,634.637,35.9148,0,0.000885,0,0
0:2:28.068,641.74,36.3147,0,0.000885,0,0
0:2:29.465,647.141,36.6181,0,0.000885,0,0
0:2:30.871,653.479,36.9766,0,0.000885,0,0
0:2:32.265,660.054,37.3489,0,0.000885,0,0
0:2:33.665,665.748,37.673,0,0.000885,0,0
0:2:35.072,672.38,38.0522,0,0.000885,0,0
0:2:36.470,678.016,38.3693,0,0.000885,0,0
0:2:37.862,684.119,38.7141,0,0.000885,0,0
0:2:39.248,690.048,39.0519,0,0.000885,0,0
0:2:40.662,696.565,39.4173,0,0.000885,0,0
0:2:42.056,702.904,39.7759,0,0.000885,0,0
0:2:43.467,709.358,40.1413,0,0.000885,0,0
0:2:44.871,715.759,40.5067,0,0.000885,0,0
0:2:46.271,721.039,40.8032,0,0.000885,0,0
0:2:47.673,727.849,41.1893,0,0.000885,0,0
0:2:49.060,734.072,41.5409,0,0.000885,0,0
0:2:50.473,740.589,41.9063,0,0.000885,0,0
0:2:51.868,746.047,42.2166,0,0.000885,0,0
0:2:53.268,752.328,42.5751,0,0.000885,0,0
0:2:54.676,758.493,42.9199,0,0.000885,0,0
0:2:56.081,765.067,43.2922,0,0.000885,0,0
0:2:57.474,770.935,43.6231,0,0.000885,0,0
0:2:58.873,776.571,43.9472,0,0.000885,0,0
0:3:0.285,784.084,44.3678,0,0.000885,0,0
0:3:1.675,789.777,44.6918,0,0.000885,0,0
0:3:3.065,795.822,45.0366,0,0.000885,0,0
0:3:4.484,802.045,45.3882,0,0.000885,0,0
0:3:5.888,807.503,45.6985,0,0.000885,0,0
0:3:7.282,814.723,46.1052,0,0.000885,0,0
0:3:8.674,820.185,46.4155,0,0.000885,0,0
0:3:10.078,826.346,46.7602,0,0.000885,0,0
0:3:11.478,832.685,47.1188,0,0.000885,0,0
0:3:12.869,838.672,47.4566,0,0.000885,0,0
0:3:14.255,844.659,47.8014,0,0.000885,0,0
0:3:15.669,852.057,48.215,0,0.000885,0,0
0:3:17.063,857.751,48.5391,0,0.000885,0,0
0:3:18.461,863.329,48.8563,0,0.000885,0,0
0:3:19.870,869.432,49.201,0,0.000885,0,0
0:3:21.277,876.064,49.5733,0,0.000885,0,0
0:3:22.666,881.878,49.9043,0,0.000885,0,0
0:3:24.074,888.216,50.2628,0,0.000885,0,0
0:3:25.486,894.319,50.6075,0,0.000885,0,0
0:3:26.882,900.894,50.9798,0,0.000885,0,0
0:3:28.268,906.708,51.3108,0,0.000885,0,0
0:3:29.679,913.162,51.6762,0,0.000885,0,0
0:3:31.086,919.563,52.0347,0,0.000885,0,0
0:3:32.479,925.137,52.3519,0,0.000885,0,0
0:3:33.867,931.48,52.7104,0,0.000885,0,0
0:3:35.283,938.464,53.1034,0,0.000885,0,0
0:3:36.683,944.215,53.4344,0,0.000885,0,0
0:3:38.069,949.909,53.7515,0,0.000885,0,0
0:3:39.478,956.425,54.1238,0,0.000885,0,0
0:3:40.882,962.177,54.4479,0,0.000885,0,0
0:3:42.275,968.574,54.8133,0,0.000885,0,0
0:3:43.675,975.735,55.2132,0,0.000885,0,0
0:3:45.078,981.313,55.5304,0,0.000885,0,0
0:3:46.478,987.243,55.8682,0,0.000885,0,0
0:3:47.870,993.581,56.2267,0,0.000885,0,0
0:3:49.265,999.453,56.5577,0,0.000885,0,0
0:3:50.681,1005.67,56.9093,0,0.000885,0,0
0:3:52.075,1012.3,57.2816,0,0.000885,0,0
0:3:53.471,1018,57.6057,0,0.000885,0,0
0:3:54.888,1024.99,58.0056,0,0.000885,0,0
0:3:56.288,1030.39,58.309,0,0.000885,0,0
0:3:57.679,1036.37,58.6468,0,0.000885,0,0
0:3:59.064,1042.48,58.9915,0,0.000885,0,0
0:4:0.478,1048.76,59.3501,0,0.000885,0,0
0:4:1.871,1055.75,59.7431,0,0.000885,0,0
0:4:3.261,1061.61,60.074,0,0.000885,0,0
0:4:4.659,1067.66,60.4188,0,0.000885,0,0
0:4:6.066,1074,60.7773,0,0.000885,0,0
0:4:7.458,1080.16,61.122,0,0.000885,0,0
0:4:8.846,1086.15,61.4668,0,0.000885,0,0
0:4:10.257,1092.14,61.8046,0,0.000885,0,0
0:4:11.652,1099.24,62.2045,0,0.000885,0,0
0:4:13.041,1104.52,62.501,0,0.000885,0,0
0:4:14.439,1110.69,62.8526,0,0.000885,0,0
0:4:15.845,1117.2,63.218,0,0.000885,0,0
0:4:17.238,1123.37,63.5697,0,0.000885,0,0
0:4:18.629,1129.53,63.9213,0,0.000885,0,0
0:4:20.036,1135.99,64.2867,0,0.000885,0,0
0:4:21.434,1141.33,64.5832,0,0.000885,0,0
0:4:22.828,1147.96,64.9624,0,0.000885,0,0
0:4:24.218,1153.77,65.2934,0,0.000885,0,0
0:4:25.633,1160.46,65.6657,0,0.000885,0,0
0:4:27.024,1166.45,66.0104,0,0.000885,0,0
0:4:28.419,1172.91,66.3758,0,0.000885,0,0
0:4:29.821,1179.37,66.7413,0,0.000885,0,0
0:4:31.224,1185.29,67.0722,0,0.000885,0,0
0:4:32.611,1191.57,67.4307,0,0.000885,0,0
0:4:34.005,1197.44,67.7617,0,0.000885,0,0
0:4:35.414,1203.32,68.0926,0,0.000885,0,0
0:4:36.810,1210.83,68.5201,0,0.000885,0,0
0:4:38.199,1215.99,68.8097,0,0.000885,0,0
0:4:39.604,1221.8,69.1406,0,0.000885,0,0
0:4:41.008,1228.96,69.5474,0,0.000885,0,0
0:4:42.394,1234.95,69.8853,0,0.000885,0,0
0:4:43.785,1240.06,70.1748,0,0.000885,0,0
0:4:45.196,1246.99,70.5678,0,0.000885,0,0
0:4:46.592,1253.03,70.9057,0,0.000885,0,0
0:4:47.980,1259.67,71.2849,0,0.000885,0,0
0:4:49.384,1265.42,71.6089,0,0.000885,0,0
0:4:50.798,1271.7,71.9606,0,0.000885,0,0
0:4:52.186,1277.68,72.3053,0,0.000885,0,0
0:4:53.588,1284.26,72.6776,0,0.000885,0,0
0:4:54.997,1289.9,72.9948,0,0.000885,0,0
0:4:56.393,1296.53,73.3671,0,0.000885,0,0
0:4:57.781,1302.75,73.7187,0,0.000885,0,0
0:4:59.185,1308.91,74.0704,0,0.000885,0,0
0:5:0.600,1314.55,74.3875,0,0.000885,0,0
0:5:1.986,1321.12,74.7599,0,0.000885,0,0
0:5:3.386,1327.4,75.1184,0,0.000885,0,0
0:5:4.790,1332.92,75.4286,0,0.000885,0,0
0:5:6.193,1339.61,75.8079,0,0.000885,0,0
0:5:7.581,1345.54,76.1388,0,0.000885,0,0
0:5:8.983,1351.82,76.4973,0,0.000885,0,0
0:5:10.396,1357.75,76.8352,0,0.000885,0,0
0:5:11.790,1364.21,77.2006,0,0.000885,0,0
0:5:13.187,1370.49,77.5522,0,0.000885,0,0
0:5:14.594,1376.53,77.897,0,0.000885,0,0
0:5:15.995,1382.29,78.221,0,0.000885,0,0
0:5:17.382,1388.1,78.552,0,0.000885,0,0
0:5:18.784,1394.14,78.8898,0,0.000885,0,0
0:5:20.205,1400.31,79.2414,0,0.000885,0,0
0:5:21.599,1387.22,78.5037,0,0.000885,0,0
0:5:22.990,1374.83,77.8004,0,0.000885,0,0
0:5:24.391,1370.9,77.5798,0,0.000885,0,0
0:5:25.801,1373.95,77.7522,0,0.000885,0,0
0:5:27.184,1382.29,78.221,0,0.000885,0,0
0:5:28.580,1389.62,78.6347,0,0.000885,0,0
0:5:29.988,1393.68,78.8691,0,0.000885,0,0
0:5:31.390,1396.2,79.007,0,0.000885,0,0
0:5:32.792,1396.08,79.0001,0,0.000885,0,0
0:5:33.468,1142.73,64.6659,0,0.000885,0,0