File: DataFile2021-06-29_053151.csv
Test ID:,Date Tested:,Time:,Test Type:,Diameter Avg. (mm):,Cyl. Corr. Factor:,Height (mm):,Age (days):,Weight (kN):,Break Type:,Ramp Rate (MPa/s):,Load at Break (kN):,Stress at Break (MPa):
12,6/29/2021,05:31,Cylinder,100,1,200,0,3.6,3,0.24,318.76,40.59
Sample Time,Load (kN),Stress (MPa),Long. Strain,Trans. Strain,Chan1 Deflection (mm),Chan2 Deflection (mm)
0:0:19.534,5.33787,0.682581,0,0.000885,0,0
0:0:20.234,13.2557,1.68922,0,0.000885,0,0
0:0:20.938,11.9079,1.51685,0,0.000885,0,0
0:0:21.625,11.4364,1.45479,0,0.000885,0,0
0:0:22.323,11.4942,1.46169,0,0.000885,0,0
0:0:23.038,11.2629,1.43411,0,0.000885,0,0
0:0:23.728,12.3171,1.56511,0,0.000885,0,0
0:0:24.440,14.0742,1.79264,0,0.000885,0,0
0:0:25.136,15.3063,1.95122,0,0.000885,0,0
0:0:25.844,17.3614,2.21322,0,0.000885,0,0
0:0:26.553,19.3542,2.46143,0,0.000885,0,0
0:0:27.247,20.9956,2.67517,0,0.000885,0,0
0:0:27.944,21.9342,2.79238,0,0.000885,0,0
0:0:28.642,23.1085,2.94406,0,0.000885,0,0
0:0:29.337,24.9857,3.17848,0,0.000885,0,0
0:0:30.036,25.4527,3.24054,0,0.000885,0,0
0:0:30.744,27.2142,3.46806,0,0.000885,0,0
0:0:31.451,28.6199,3.64733,0,0.000885,0,0
0:0:32.149,30.1456,3.84038,0,0.000885,0,0
0:0:32.844,31.0842,3.95759,0,0.000885,0,0
0:0:33.542,32.7878,4.17133,0,0.000885,0,0
0:0:34.241,34.0778,4.3368,0,0.000885,0,0
0:0:34.940,35.3055,4.49538,0,0.000885,0,0
0:0:35.649,36.8313,4.68843,0,0.000885,0,0
0:0:36.354,38.357,4.88149,0,0.000885,0,0
0:0:37.048,39.7048,5.05386,0,0.000885,0,0
0:0:37.746,41.2884,5.25381,0,0.000885,0,0
0:0:38.443,42.7563,5.44686,0,0.000885,0,0
0:0:39.137,43.9306,5.59165,0,0.000885,0,0
0:0:39.836,45.3363,5.77091,0,0.000885,0,0
0:0:40.545,46.3905,5.90881,0,0.000885,0,0
0:0:41.251,48.3299,6.15012,0,0.000885,0,0
0:0:41.950,49.6777,6.32249,0,0.000885,0,0
0:0:42.643,50.1448,6.38455,0,0.000885,0,0
0:0:43.343,51.9641,6.61897,0,0.000885,0,0
0:0:44.040,53.6633,6.8327,0,0.000885,0,0
0:0:44.743,54.5441,6.94302,0,0.000885,0,0
0:0:45.449,56.1855,7.15676,0,0.000885,0,0
0:0:46.156,57.7691,7.35671,0,0.000885,0,0
0:0:46.854,58.6498,7.46702,0,0.000885,0,0
0:0:47.554,59.9398,7.6325,0,0.000885,0,0
0:0:48.248,61.3499,7.81176,0,0.000885,0,0
0:0:48.944,62.8712,8.00481,0,0.000885,0,0
0:0:49.645,64.2813,8.18408,0,0.000885,0,0
0:0:50.342,66.0383,8.4116,0,0.000885,0,0
0:0:51.050,67.2126,8.55639,0,0.000885,0,0
0:0:51.756,68.209,8.68739,0,0.000885,0,0
0:0:52.450,69.6769,8.87355,0,0.000885,0,0
0:0:53.150,71.4963,9.10108,0,0.000885,0,0
0:0:53.847,72.5505,9.23897,0,0.000885,0,0
0:0:54.539,73.7248,9.38376,0,0.000885,0,0
0:0:55.247,75.3662,9.5975,0,0.000885,0,0
0:0:55.953,76.8341,9.78366,0,0.000885,0,0
0:0:56.654,78.1241,9.94913,0,0.000885,0,0
0:0:57.352,79.3563,10.1008,0,0.000885,0,0
0:0:58.045,80.4683,10.2456,0,0.000885,0,0
0:0:58.744,82.5812,10.5145,0,0.000885,0,0
0:0:59.439,83.9869,10.6938,0,0.000885,0,0
0:1:0.142,84.8676,10.8041,0,0.000885,0,0
0:1:0.848,86.3934,10.9971,0,0.000885,0,0
0:1:1.550,88.2082,11.2316,0,0.000885,0,0
0:1:2.249,89.1468,11.3488,0,0.000885,0,0
0:1:2.945,90.9083,11.5763,0,0.000885,0,0
0:1:3.639,92.1405,11.7349,0,0.000885,0,0
0:1:4.338,92.7855,11.8107,0,0.000885,0,0
0:1:5.047,94.1333,11.9831,0,0.000885,0,0
0:1:5.756,96.4197,12.2796,0,0.000885,0,0
0:1:6.461,97.5362,12.4175,0,0.000885,0,0
0:1:7.153,98.0032,12.4795,0,0.000885,0,0
0:1:7.851,99.529,12.6726,0,0.000885,0,0
0:1:8.548,101.935,12.9759,0,0.000885,0,0
0:1:9.241,103.577,13.1897,0,0.000885,0,0
0:1:9.942,104.4,13.2931,0,0.000885,0,0
0:1:10.651,105.454,13.4241,0,0.000885,0,0
0:1:11.356,107.331,13.6654,0,0.000885,0,0
0:1:12.055,108.212,13.7757,0,0.000885,0,0
0:1:12.748,110.498,14.0722,0,0.000885,0,0
0:1:13.446,110.672,14.0929,0,0.000885,0,0
0:1:14.144,112.611,14.3411,0,0.000885,0,0
0:1:14.833,113.372,14.4376,0,0.000885,0,0
0:1:15.545,114.955,14.6376,0,0.000885,0,0
0:1:16.251,116.539,14.8375,0,0.000885,0,0
0:1:16.951,117.184,14.9203,0,0.000885,0,0
0:1:17.650,119.822,15.2581,0,0.000885,0,0
0:1:18.343,120.76,15.3753,0,0.000885,0,0
0:1:19.041,122.05,15.5408,0,0.000885,0,0
0:1:19.747,123.225,15.6925,0,0.000885,0,0
0:1:20.450,124.63,15.8717,0,0.000885,0,0
0:1:21.157,125.983,16.0372,0,0.000885,0,0
0:1:21.857,127.624,16.2509,0,0.000885,0,0
0:1:22.554,129.092,16.4371,0,0.000885,0,0
0:1:23.253,130.32,16.5957,0,0.000885,0,0
0:1:23.947,131.552,16.7474,0,0.000885,0,0
0:1:24.643,133.135,16.9542,0,0.000885,0,0
0:1:25.355,134.777,17.1611,0,0.000885,0,0
0:1:26.057,135.426,17.2438,0,0.000885,0,0
0:1:26.756,137.361,17.492,0,0.000885,0,0
0:1:27.452,137.944,17.5609,0,0.000885,0,0
0:1:28.148,139.647,17.7816,0,0.000885,0,0
0:1:28.847,141.525,18.016,0,0.000885,0,0
0:1:29.541,143.753,18.3056,0,0.000885,0,0
0:1:30.246,143.46,18.2642,0,0.000885,0,0
0:1:30.952,145.101,18.4779,0,0.000885,0,0
0:1:31.653,146.391,18.6365,0,0.000885,0,0
0:1:32.350,148.384,18.8916,0,0.000885,0,0
0:1:33.048,149.558,19.0433,0,0.000885,0,0
0:1:33.740,150.612,19.1743,0,0.000885,0,0
0:1:34.447,151.965,19.3467,0,0.000885,0,0
0:1:35.144,153.842,19.588,0,0.000885,0,0
0:1:35.853,154.545,19.6776,0,0.000885,0,0
0:1:36.559,156.07,19.8707,0,0.000885,0,0
0:1:37.256,158.005,20.1189,0,0.000885,0,0
0:1:37.948,159.295,20.2844,0,0.000885,0,0
0:1:38.649,160.47,20.4292,0,0.000885,0,0
0:1:39.343,162.347,20.6705,0,0.000885,0,0
0:1:40.047,163.05,20.7601,0,0.000885,0,0
0:1:40.752,165.278,21.0428,0,0.000885,0,0
0:1:41.451,165.865,21.1186,0,0.000885,0,0
0:1:42.149,167.742,21.36,0,0.000885,0,0
0:1:42.848,168.503,21.4565,0,0.000885,0,0
0:1:43.540,169.557,21.5875,0,0.000885,0,0
0:1:44.248,171.261,21.8081,0,0.000885,0,0
0:1:44.947,173.018,22.0287,0,0.000885,0,0
0:1:45.656,174.308,22.1942,0,0.000885,0,0
0:1:46.362,176.363,22.4562,0,0.000885,0,0
0:1:47.057,176.95,22.5321,0,0.000885,0,0
0:1:47.751,178.356,22.7113,0,0.000885,0,0
0:1:48.451,179.766,22.8906,0,0.000885,0,0
0:1:49.144,181.465,23.1043,0,0.000885,0,0
0:1:49.851,183.107,23.3112,0,0.000885,0,0
0:1:50.558,183.93,23.4215,0,0.000885,0,0
0:1:51.262,184.926,23.5456,0,0.000885,0,0
0:1:51.962,186.389,23.7318,0,0.000885,0,0
0:1:52.658,188.209,23.9662,0,0.000885,0,0
0:1:53.351,189.267,24.0972,0,0.000885,0,0
0:1:54.049,191.434,24.373,0,0.000885,0,0
0:1:54.745,192.844,24.5522,0,0.000885,0,0
0:1:55.442,193.08,24.5867,0,0.000885,0,0
0:1:56.144,194.485,24.766,0,0.000885,0,0
0:1:56.841,196.127,24.9728,0,0.000885,0,0
0:1:57.543,197.594,25.159,0,0.000885,0,0
0:1:58.247,199.294,25.3727,0,0.000885,0,0
0:1:58.944,201.522,25.6554,0,0.000885,0,0
0:1:59.635,202.639,25.8002,0,0.000885,0,0
0:2:0.338,203.399,25.8967,0,0.000885,0,0
0:2:1.038,204.516,26.0415,0,0.000885,0,0
0:2:1.745,205.334,26.1449,0,0.000885,0,0
0:2:2.445,207.389,26.4069,0,0.000885,0,0
0:2:3.133,209.146,26.6276,0,0.000885,0,0
0:2:3.835,210.436,26.793,0,0.000885,0,0
0:2:4.535,211.202,26.8896,0,0.000885,0,0
0:2:5.235,212.665,27.0757,0,0.000885,0,0
0:2:5.939,215.014,27.3791,0,0.000885,0,0
0:2:6.645,215.129,27.3929,0,0.000885,0,0
0:2:7.334,216.184,27.5239,0,0.000885,0,0
0:2:8.027,218.59,27.8341,0,0.000885,0,0
0:2:8.746,219.764,27.9789,0,0.000885,0,0
0:2:9.437,221.348,28.1858,0,0.000885,0,0
0:2:10.130,222.989,28.3926,0,0.000885,0,0
0:2:10.834,223.634,28.4753,0,0.000885,0,0
0:2:11.537,225.334,28.6891,0,0.000885,0,0
0:2:12.237,226.801,28.8752,0,0.000885,0,0
0:2:12.947,228.149,29.0476,0,0.000885,0,0
0:2:13.643,229.853,29.2682,0,0.000885,0,0
0:2:14.330,230.907,29.3992,0,0.000885,0,0
0:2:15.031,232.082,29.5509,0,0.000885,0,0
0:2:15.732,233.429,29.7233,0,0.000885,0,0
0:2:16.435,234.31,29.8336,0,0.000885,0,0
0:2:17.137,235.658,30.006,0,0.000885,0,0
0:2:17.833,237.419,30.2266,0,0.000885,0,0
0:2:18.540,238.941,30.4197,0,0.000885,0,0
0:2:19.235,239.999,30.5576,0,0.000885,0,0
0:2:19.928,242.286,30.8471,0,0.000885,0,0
0:2:20.632,243.046,30.9437,0,0.000885,0,0
0:2:21.333,243.927,31.0609,0,0.000885,0,0
0:2:22.025,245.746,31.2884,0,0.000885,0,0
0:2:22.734,247.272,31.4815,0,0.000885,0,0
0:2:23.429,248.033,31.578,0,0.000885,0,0
0:2:24.136,249.968,31.8262,0,0.000885,0,0
0:2:24.835,250.733,31.9227,0,0.000885,0,0
0:2:25.541,252.668,32.1709,0,0.000885,0,0
0:2:26.240,254.603,32.4191,0,0.000885,0,0
0:2:26.947,255.306,32.5088,0,0.000885,0,0
0:2:27.636,256.302,32.6329,0,0.000885,0,0
0:2:28.333,258.237,32.8811,0,0.000885,0,0
0:2:29.035,259.176,32.9983,0,0.000885,0,0
0:2:29.728,261.053,33.2396,0,0.000885,0,0
0:2:30.425,262.463,33.4189,0,0.000885,0,0
0:2:31.129,263.691,33.5775,0,0.000885,0,0
0:2:31.825,265.394,33.7912,0,0.000885,0,0
0:2:32.535,265.803,33.8464,0,0.000885,0,0
0:2:33.238,267.445,34.0532,0,0.000885,0,0
0:2:33.938,269.442,34.3083,0,0.000885,0,0
0:2:34.628,270.439,34.4324,0,0.000885,0,0
0:2:35.334,271.729,34.5979,0,0.000885,0,0
0:2:36.034,273.37,34.8047,0,0.000885,0,0
0:2:36.736,274.073,34.8944,0,0.000885,0,0
0:2:37.437,275.95,35.1357,0,0.000885,0,0
0:2:38.135,277.476,35.3287,0,0.000885,0,0
0:2:38.838,279.001,35.5218,0,0.000885,0,0
0:2:39.538,280.056,35.6597,0,0.000885,0,0
0:2:40.249,281.288,35.8114,0,0.000885,0,0
0:2:40.952,282.987,36.032,0,0.000885,0,0
0:2:41.646,284.397,36.2113,0,0.000885,0,0
0:2:42.350,285.923,36.4043,0,0.000885,0,0
0:2:43.040,286.919,36.5284,0,0.000885,0,0
0:2:43.749,288.325,36.7077,0,0.000885,0,0
0:2:44.442,289.384,36.8456,0,0.000885,0,0
0:2:45.146,291.492,37.1145,0,0.000885,0,0
0:2:45.850,292.84,37.2868,0,0.000885,0,0
0:2:46.551,293.956,37.4247,0,0.000885,0,0
0:2:47.239,295.54,37.6316,0,0.000885,0,0
0:2:47.949,296.714,37.7764,0,0.000885,0,0
0:2:48.655,297.711,37.9074,0,0.000885,0,0
0:2:49.340,298.823,38.0453,0,0.000885,0,0
0:2:50.040,300.348,38.2383,0,0.000885,0,0
0:2:50.741,302.283,38.4865,0,0.000885,0,0
0:2:51.447,303.342,38.6244,0,0.000885,0,0
0:2:52.150,304.926,38.8244,0,0.000885,0,0
0:2:52.841,306.158,38.983,0,0.000885,0,0
0:2:53.538,307.448,39.1484,0,0.000885,0,0
0:2:54.233,308.911,39.3346,0,0.000885,0,0
0:2:54.937,309.734,39.438,0,0.000885,0,0
0:2:55.641,310.966,39.5966,0,0.000885,0,0
0:2:56.343,312.43,39.7827,0,0.000885,0,0
0:2:57.043,313.898,39.9689,0,0.000885,0,0
0:2:57.743,315.13,40.1206,0,0.000885,0,0
0:2:58.438,316.478,40.293,0,0.000885,0,0
0:2:59.127,317.768,40.4584,0,0.000885,0,0
0:2:59.818,318.119,40.5067,0,0.000885,0,0
0:3:0.522,319.115,40.6308,0,0.000885,0,0
0:3:1.222,318.177,40.5136,0,0.000885,0,0
0:3:1.914,316.126,40.2516,0,0.000885,0,0
0:3:2.606,301.171,38.3486,0,0.000885,0,0
0:3:3.293,236.77,30.1439,0,0.000885,0,0
0:3:3.404,236.77,30.1439,0,0.000885,0,0