File: DataFile2021-06-07_065958.csv
Test ID:,Date Tested:,Time:,Test Type:,Diameter Avg. (mm):,Cyl. Corr. Factor:,Height (mm):,Age (days):,Weight (kN):,Break Type:,Ramp Rate (MPa/s):,Load at Break (kN):,Stress at Break (MPa):
12,6/7/2021,06:59,Cylinder,100,1,200,0,3.6,3,0.24,377.48,48.06
Sample Time,Load (kN),Stress (MPa),Long. Strain,Trans. Strain,Chan1 Deflection (mm),Chan2 Deflection (mm)
0:0:21.042,7.27284,0.923897,0,0.000885,0,0
0:0:21.944,12.4328,1.58579,0,0.000885,0,0
0:0:22.848,11.4942,1.46169,0,0.000885,0,0
0:0:23.751,10.8492,1.37895,0,0.000885,0,0
0:0:24.639,12.3171,1.56511,0,0.000885,0,0
0:0:25.551,13.1979,1.68232,0,0.000885,0,0
0:0:26.450,14.7192,1.87537,0,0.000885,0,0
0:0:27.360,17.1835,2.18564,0,0.000885,0,0
0:0:28.263,19.7056,2.50969,0,0.000885,0,0
0:0:29.156,21.6406,2.7579,0,0.000885,0,0
0:0:30.052,22.9306,2.91648,0,0.000885,0,0
0:0:30.950,24.3407,3.09575,0,0.000885,0,0
0:0:31.853,26.5692,3.38533,0,0.000885,0,0
0:0:32.761,28.6821,3.65422,0,0.000885,0,0
0:0:33.658,29.852,3.79901,0,0.000885,0,0
0:0:34.556,31.6135,4.02654,0,0.000885,0,0
0:0:35.450,33.5485,4.27475,0,0.000885,0,0
0:0:36.344,35.6614,4.54365,0,0.000885,0,0
0:0:37.254,36.9514,4.70222,0,0.000885,0,0
0:0:38.164,38.9442,4.95733,0,0.000885,0,0
0:0:39.057,40.937,5.21244,0,0.000885,0,0
0:0:39.953,42.5784,5.41928,0,0.000885,0,0
0:0:40.850,44.1619,5.62612,0,0.000885,0,0
0:0:41.760,45.9813,5.85365,0,0.000885,0,0
0:0:42.668,47.507,6.0467,0,0.000885,0,0
0:0:43.565,49.2062,6.26733,0,0.000885,0,0
0:0:44.458,51.2613,6.52934,0,0.000885,0,0
0:0:45.357,52.5513,6.68791,0,0.000885,0,0
0:0:46.254,54.6019,6.94992,0,0.000885,0,0
0:0:47.166,56.657,7.21192,0,0.000885,0,0
0:0:48.069,58.2984,7.42565,0,0.000885,0,0
0:0:48.968,59.9976,7.63939,0,0.000885,0,0
0:0:49.863,61.6435,7.84623,0,0.000885,0,0
0:0:50.755,63.2848,8.05997,0,0.000885,0,0
0:0:51.657,65.4556,8.33576,0,0.000885,0,0
0:0:52.566,66.9769,8.52881,0,0.000885,0,0
0:0:53.469,68.7962,8.75634,0,0.000885,0,0
0:0:54.364,70.7312,9.00455,0,0.000885,0,0
0:0:55.258,72.2569,9.19761,0,0.000885,0,0
0:0:56.156,74.4855,9.48719,0,0.000885,0,0
0:0:57.063,75.424,9.6044,0,0.000885,0,0
0:0:57.971,78.1241,9.94913,0,0.000885,0,0
0:0:58.866,80.1747,10.2111,0,0.000885,0,0
0:0:59.764,81.1711,10.3352,0,0.000885,0,0
0:1:0.661,82.9905,10.5697,0,0.000885,0,0
0:1:1.561,84.6897,10.7834,0,0.000885,0,0
0:1:2.470,86.509,11.0178,0,0.000885,0,0
0:1:3.369,88.2705,11.2385,0,0.000885,0,0
0:1:4.264,90.0854,11.4729,0,0.000885,0,0
0:1:5.158,92.0248,11.7142,0,0.000885,0,0
0:1:6.055,93.8975,11.9555,0,0.000885,0,0
0:1:6.963,94.9562,12.0934,0,0.000885,0,0
0:1:7.868,97.5362,12.4175,0,0.000885,0,0
0:1:8.760,98.5904,12.5554,0,0.000885,0,0
0:1:9.656,100.761,12.8311,0,0.000885,0,0
0:1:10.554,102.287,13.0242,0,0.000885,0,0
0:1:11.458,104.573,13.3138,0,0.000885,0,0
0:1:12.369,106.393,13.5482,0,0.000885,0,0
0:1:13.271,107.976,13.7481,0,0.000885,0,0
0:1:14.169,109.618,13.955,0,0.000885,0,0
0:1:15.063,110.734,14.0998,0,0.000885,0,0
0:1:15.956,112.491,14.3204,0,0.000885,0,0
0:1:16.859,114.777,14.6169,0,0.000885,0,0
0:1:17.769,116.712,14.8582,0,0.000885,0,0
0:1:18.669,117.945,15.0168,0,0.000885,0,0
0:1:19.561,120.409,15.3339,0,0.000885,0,0
0:1:20.456,121.463,15.4649,0,0.000885,0,0
0:1:21.356,123.812,15.7614,0,0.000885,0,0
0:1:22.270,125.747,16.0096,0,0.000885,0,0
0:1:23.168,126.743,16.1406,0,0.000885,0,0
0:1:24.064,129.092,16.4371,0,0.000885,0,0
0:1:24.962,131.085,16.6922,0,0.000885,0,0
0:1:25.855,132.081,16.8163,0,0.000885,0,0
0:1:26.759,134.719,17.1542,0,0.000885,0,0
0:1:27.667,136.596,17.3955,0,0.000885,0,0
0:1:28.568,137.712,17.5334,0,0.000885,0,0
0:1:29.463,139.354,17.7402,0,0.000885,0,0
0:1:30.355,141.582,18.0298,0,0.000885,0,0
0:1:31.251,142.988,18.2091,0,0.000885,0,0
0:1:32.162,144.634,18.4159,0,0.000885,0,0
0:1:33.070,146.569,18.6641,0,0.000885,0,0
0:1:33.963,148.384,18.8916,0,0.000885,0,0
0:1:34.859,150.612,19.1743,0,0.000885,0,0
0:1:35.757,152.138,19.3743,0,0.000885,0,0
0:1:36.660,153.49,19.5397,0,0.000885,0,0
0:1:37.568,155.483,19.7948,0,0.000885,0,0
0:1:38.465,157.067,20.0017,0,0.000885,0,0
0:1:39.364,158.944,20.2361,0,0.000885,0,0
0:1:40.257,160.821,20.4774,0,0.000885,0,0
0:1:41.150,162.756,20.7256,0,0.000885,0,0
0:1:42.062,164.162,20.9049,0,0.000885,0,0
0:1:42.969,166.217,21.16,0,0.000885,0,0
0:1:43.861,167.916,21.3806,0,0.000885,0,0
0:1:44.755,169.442,21.5737,0,0.000885,0,0
0:1:45.653,171.492,21.8357,0,0.000885,0,0
0:1:46.559,172.845,22.0081,0,0.000885,0,0
0:1:47.471,174.602,22.2287,0,0.000885,0,0
0:1:48.373,176.772,22.5045,0,0.000885,0,0
0:1:49.268,179.059,22.801,0,0.000885,0,0
0:1:50.166,179.882,22.9044,0,0.000885,0,0
0:1:51.062,182.168,23.194,0,0.000885,0,0
0:1:51.962,183.516,23.3663,0,0.000885,0,0
0:1:52.872,185.513,23.6214,0,0.000885,0,0
0:1:53.772,186.452,23.7386,0,0.000885,0,0
0:1:54.670,189.325,24.1041,0,0.000885,0,0
0:1:55.562,190.909,24.304,0,0.000885,0,0
0:1:56.465,192.43,24.504,0,0.000885,0,0
0:1:57.368,193.956,24.697,0,0.000885,0,0
0:1:58.265,196.598,25.0349,0,0.000885,0,0
0:1:59.153,197.946,25.2003,0,0.000885,0,0
0:2:0.045,200.41,25.5175,0,0.000885,0,0
0:2:0.954,201.171,25.614,0,0.000885,0,0
0:2:1.858,202.754,25.814,0,0.000885,0,0
0:2:2.760,204.396,26.0277,0,0.000885,0,0
0:2:3.647,207.212,26.3862,0,0.000885,0,0
0:2:4.544,207.741,26.4483,0,0.000885,0,0
0:2:5.446,210.027,26.7448,0,0.000885,0,0
0:2:6.359,212.665,27.0757,0,0.000885,0,0
0:2:7.262,213.194,27.1447,0,0.000885,0,0
0:2:8.157,215.423,27.4273,0,0.000885,0,0
0:2:9.045,217.242,27.6618,0,0.000885,0,0
0:2:9.937,218.826,27.8617,0,0.000885,0,0
0:2:10.823,221.521,28.2065,0,0.000885,0,0
0:2:11.720,223.519,28.4616,0,0.000885,0,0
0:2:12.621,224.457,28.5788,0,0.000885,0,0
0:2:13.517,226.041,28.7787,0,0.000885,0,0
0:2:14.403,227.562,28.9718,0,0.000885,0,0
0:2:15.290,228.679,29.1166,0,0.000885,0,0
0:2:16.182,231.316,29.4544,0,0.000885,0,0
0:2:17.081,233.665,29.7509,0,0.000885,0,0
0:2:17.982,234.604,29.8681,0,0.000885,0,0
0:2:18.870,236.187,30.0749,0,0.000885,0,0
0:2:19.762,238.122,30.3162,0,0.000885,0,0
0:2:20.649,239.586,30.5024,0,0.000885,0,0
0:2:21.546,241.992,30.8127,0,0.000885,0,0
0:2:22.447,243.869,31.0471,0,0.000885,0,0
0:2:23.349,245.453,31.2539,0,0.000885,0,0
0:2:24.245,247.446,31.509,0,0.000885,0,0
0:2:25.163,247.917,31.5642,0,0.000885,0,0
0:2:26.061,250.849,31.9365,0,0.000885,0,0
0:2:26.964,252.668,32.1709,0,0.000885,0,0
0:2:27.864,254.954,32.4605,0,0.000885,0,0
0:2:28.759,256.244,32.626,0,0.000885,0,0
0:2:29.656,257.712,32.8121,0,0.000885,0,0
0:2:30.557,259.585,33.0535,0,0.000885,0,0
0:2:31.455,261.168,33.2534,0,0.000885,0,0
0:2:32.362,263.339,33.5292,0,0.000885,0,0
0:2:33.257,264.513,33.6809,0,0.000885,0,0
0:2:34.144,266.448,33.9222,0,0.000885,0,0
0:2:35.032,268.09,34.1359,0,0.000885,0,0
0:2:35.917,269.736,34.3428,0,0.000885,0,0
0:2:36.822,272.431,34.6875,0,0.000885,0,0
0:2:37.722,273.254,34.7909,0,0.000885,0,0
0:2:38.611,275.714,35.1081,0,0.000885,0,0
0:2:39.497,276.715,35.2322,0,0.000885,0,0
0:2:40.387,278.414,35.4459,0,0.000885,0,0
0:2:41.276,281.11,35.7907,0,0.000885,0,0
0:2:42.183,281.697,35.8665,0,0.000885,0,0
0:2:43.076,284.161,36.1837,0,0.000885,0,0
0:2:43.968,285.923,36.4043,0,0.000885,0,0
0:2:44.853,287.213,36.5698,0,0.000885,0,0
0:2:45.762,289.557,36.8663,0,0.000885,0,0
0:2:46.666,291.67,37.1352,0,0.000885,0,0
0:2:47.570,292.666,37.2662,0,0.000885,0,0
0:2:48.467,294.486,37.4937,0,0.000885,0,0
0:2:49.363,296.536,37.7557,0,0.000885,0,0
0:2:50.260,298.178,37.9625,0,0.000885,0,0
0:2:51.149,300.233,38.2245,0,0.000885,0,0
0:2:52.054,302.226,38.4796,0,0.000885,0,0
0:2:52.948,303.28,38.6175,0,0.000885,0,0
0:2:53.854,305.508,38.9002,0,0.000885,0,0
0:2:54.757,306.74,39.0588,0,0.000885,0,0
0:2:55.646,308.853,39.3277,0,0.000885,0,0
0:2:56.562,310.321,39.5139,0,0.000885,0,0
0:2:57.464,311.963,39.7207,0,0.000885,0,0
0:2:58.364,314.013,39.9827,0,0.000885,0,0
0:2:59.266,316.126,40.2516,0,0.000885,0,0
0:3:0.154,317.474,40.424,0,0.000885,0,0
0:3:1.063,319.293,40.6515,0,0.000885,0,0
0:3:1.967,321.522,40.9342,0,0.000885,0,0
0:3:2.864,322.928,41.1134,0,0.000885,0,0
0:3:3.764,324.453,41.3134,0,0.000885,0,0
0:3:4.660,326.388,41.5547,0,0.000885,0,0
0:3:5.566,327.62,41.7133,0,0.000885,0,0
0:3:6.462,329.849,41.996,0,0.000885,0,0
0:3:7.369,331.962,42.2649,0,0.000885,0,0
0:3:8.262,333.603,42.4786,0,0.000885,0,0
0:3:9.159,335.538,42.7199,0,0.000885,0,0
0:3:10.056,337.358,42.9543,0,0.000885,0,0
0:3:10.947,338.883,43.1474,0,0.000885,0,0
0:3:11.844,340.703,43.3818,0,0.000885,0,0
0:3:12.748,341.579,43.4921,0,0.000885,0,0
0:3:13.638,344.043,43.8024,0,0.000885,0,0
0:3:14.530,345.569,44.0023,0,0.000885,0,0
0:3:15.418,347.446,44.2368,0,0.000885,0,0
0:3:16.317,349.559,44.5057,0,0.000885,0,0
0:3:17.219,350.787,44.6642,0,0.000885,0,0
0:3:18.111,352.49,44.878,0,0.000885,0,0
0:3:19.003,354.892,45.1882,0,0.000885,0,0
0:3:19.889,356.067,45.333,0,0.000885,0,0
0:3:20.775,357.593,45.533,0,0.000885,0,0
0:3:21.681,359.412,45.7605,0,0.000885,0,0
0:3:22.584,361.053,45.9673,0,0.000885,0,0
0:3:23.471,363.455,46.2776,0,0.000885,0,0
0:3:24.367,365.159,46.4913,0,0.000885,0,0
0:3:25.267,366.8,46.7051,0,0.000885,0,0
0:3:26.166,368.62,46.9326,0,0.000885,0,0
0:3:27.074,369.967,47.105,0,0.000885,0,0
0:3:27.966,371.609,47.3118,0,0.000885,0,0
0:3:28.868,373.37,47.5394,0,0.000885,0,0
0:3:29.762,374.131,47.6359,0,0.000885,0,0
0:3:30.667,376.653,47.9599,0,0.000885,0,0
0:3:31.572,377.534,48.0702,0,0.000885,0,0
0:3:32.476,377.125,48.0151,0,0.000885,0,0
0:3:33.370,371.609,47.3118,0,0.000885,0,0
0:3:34.264,368.735,46.9464,0,0.000885,0,0
0:3:35.168,339.35,43.2094,0,0.000885,0,0
0:3:36.068,300.993,38.3211,0,0.000885,0,0
0:3:36.572,274.251,34.9219,0,0.000885,0,0