File: DataFile2021-06-07_073918.csv
Test ID:,Date Tested:,Time:,Test Type:,Diameter Avg. (mm):,Cyl. Corr. Factor:,Height (mm):,Age (days):,Weight (kN):,Break Type:,Ramp Rate (MPa/s):,Load at Break (kN):,Stress at Break (MPa):
12,6/7/2021,07:39,Cylinder,100,1,200,0,3.6,3,0.24,460.7,58.66
Sample Time,Load (kN),Stress (MPa),Long. Strain,Trans. Strain,Chan1 Deflection (mm),Chan2 Deflection (mm)
0:0:18.056,6.44992,0.820476,0,0.000885,0,0
0:0:19.149,11.9079,1.51685,0,0.000885,0,0
0:0:20.243,11.3207,1.441,0,0.000885,0,0
0:0:21.334,11.085,1.41343,0,0.000885,0,0
0:0:22.424,12.7842,1.62716,0,0.000885,0,0
0:0:23.520,14.8971,1.89606,0,0.000885,0,0
0:0:24.633,18.5357,2.35801,0,0.000885,0,0
0:0:25.728,20.88,2.66138,0,0.000885,0,0
0:0:26.824,22.637,2.88201,0,0.000885,0,0
0:0:27.921,24.3985,3.10954,0,0.000885,0,0
0:0:29.026,26.5114,3.37843,0,0.000885,0,0
0:0:30.135,28.74,3.66112,0,0.000885,0,0
0:0:31.229,31.142,3.96449,0,0.000885,0,0
0:0:32.323,32.8457,4.18512,0,0.000885,0,0
0:0:33.423,35.8927,4.57122,0,0.000885,0,0
0:0:34.534,37.5341,4.77807,0,0.000885,0,0
0:0:35.632,39.4735,5.02628,0,0.000885,0,0
0:0:36.727,41.7021,5.30896,0,0.000885,0,0
0:0:37.823,44.1619,5.62612,0,0.000885,0,0
0:0:38.927,45.8656,5.83986,0,0.000885,0,0
0:0:40.033,47.8006,6.08807,0,0.000885,0,0
0:0:41.128,51.0834,6.50176,0,0.000885,0,0
0:0:42.224,52.787,6.72239,0,0.000885,0,0
0:0:43.317,54.6019,6.94992,0,0.000885,0,0
0:0:44.430,57.302,7.29465,0,0.000885,0,0
0:0:45.532,58.7076,7.47392,0,0.000885,0,0
0:0:46.625,61.4077,7.81865,0,0.000885,0,0
0:0:47.718,63.4583,8.08066,0,0.000885,0,0
0:0:48.817,65.4556,8.33576,0,0.000885,0,0
0:0:49.930,68.0934,8.66671,0,0.000885,0,0
0:0:51.026,69.7926,8.88734,0,0.000885,0,0
0:0:52.123,71.9633,9.16313,0,0.000885,0,0
0:0:53.219,74.2497,9.45271,0,0.000885,0,0
0:0:54.333,76.1891,9.70092,0,0.000885,0,0
0:0:55.433,78.3554,9.97671,0,0.000885,0,0
0:0:56.526,80.6463,10.2663,0,0.000885,0,0
0:0:57.619,82.6391,10.5214,0,0.000885,0,0
0:0:58.724,85.3347,10.8661,0,0.000885,0,0
0:0:59.835,87.6255,11.1557,0,0.000885,0,0
0:1:0.932,89.3826,11.3832,0,0.000885,0,0
0:1:2.025,91.4376,11.6452,0,0.000885,0,0
0:1:3.120,93.4304,11.8935,0,0.000885,0,0
0:1:4.229,95.8369,12.2037,0,0.000885,0,0
0:1:5.331,98.2968,12.514,0,0.000885,0,0
0:1:6.428,100.174,12.7553,0,0.000885,0,0
0:1:7.521,102.345,13.0311,0,0.000885,0,0
0:1:8.625,104.573,13.3138,0,0.000885,0,0
0:1:9.734,106.215,13.5206,0,0.000885,0,0
0:1:10.829,108.505,13.8171,0,0.000885,0,0
0:1:11.921,110.792,14.1067,0,0.000885,0,0
0:1:13.014,113.02,14.3894,0,0.000885,0,0
0:1:14.127,115.365,14.6858,0,0.000885,0,0
0:1:15.230,117.651,14.9823,0,0.000885,0,0
0:1:16.325,119.413,15.2029,0,0.000885,0,0
0:1:17.421,121.819,15.5132,0,0.000885,0,0
0:1:18.515,124.163,15.8097,0,0.000885,0,0
0:1:19.629,126.214,16.0717,0,0.000885,0,0
0:1:20.725,128.385,16.3475,0,0.000885,0,0
0:1:21.820,129.968,16.5474,0,0.000885,0,0
0:1:22.914,132.432,16.8646,0,0.000885,0,0
0:1:24.019,134.488,17.1266,0,0.000885,0,0
0:1:25.129,137.477,17.5058,0,0.000885,0,0
0:1:26.224,138.651,17.6506,0,0.000885,0,0
0:1:27.317,141.053,17.9608,0,0.000885,0,0
0:1:28.415,142.93,18.1953,0,0.000885,0,0
0:1:29.526,145.159,18.4848,0,0.000885,0,0
0:1:30.625,148.384,18.8916,0,0.000885,0,0
0:1:31.720,149.558,19.0433,0,0.000885,0,0
0:1:32.814,151.551,19.2984,0,0.000885,0,0
0:1:33.922,154.896,19.719,0,0.000885,0,0
0:1:35.024,156.128,19.8776,0,0.000885,0,0
0:1:36.117,158.179,20.1396,0,0.000885,0,0
0:1:37.213,160.234,20.4016,0,0.000885,0,0
0:1:38.307,162.814,20.7325,0,0.000885,0,0
0:1:39.419,164.633,20.9601,0,0.000885,0,0
0:1:40.521,167.329,21.3048,0,0.000885,0,0
0:1:41.614,169.032,21.5185,0,0.000885,0,0
0:1:42.710,171.786,21.8702,0,0.000885,0,0
0:1:43.816,174.25,22.1873,0,0.000885,0,0
0:1:44.924,175.66,22.3666,0,0.000885,0,0
0:1:46.018,177.417,22.5872,0,0.000885,0,0
0:1:47.110,179.766,22.8906,0,0.000885,0,0
0:1:48.204,181.817,23.1526,0,0.000885,0,0
0:1:49.315,184.454,23.4835,0,0.000885,0,0
0:1:50.419,186.509,23.7455,0,0.000885,0,0
0:1:51.515,188.502,24.0007,0,0.000885,0,0
0:1:52.609,190.967,24.3178,0,0.000885,0,0
0:1:53.703,192.959,24.566,0,0.000885,0,0
0:1:54.808,195.246,24.8625,0,0.000885,0,0
0:1:55.894,197.359,25.1314,0,0.000885,0,0
0:1:56.981,199.058,25.3451,0,0.000885,0,0
0:1:58.086,200.877,25.5795,0,0.000885,0,0
0:1:59.190,203.987,25.9726,0,0.000885,0,0
0:2:0.285,205.922,26.2208,0,0.000885,0,0
0:2:1.369,207.741,26.4483,0,0.000885,0,0
0:2:2.464,210.436,26.793,0,0.000885,0,0
0:2:3.572,212.198,27.0206,0,0.000885,0,0
0:2:4.676,214.191,27.2688,0,0.000885,0,0
0:2:5.774,216.419,27.5583,0,0.000885,0,0
0:2:6.862,218.474,27.8135,0,0.000885,0,0
0:2:7.958,221.17,28.1582,0,0.000885,0,0
0:2:9.054,223.283,28.4271,0,0.000885,0,0
0:2:10.155,225.334,28.6891,0,0.000885,0,0
0:2:11.241,227.095,28.9166,0,0.000885,0,0
0:2:12.328,229.791,29.2613,0,0.000885,0,0
0:2:13.423,231.788,29.5096,0,0.000885,0,0
0:2:14.526,234.074,29.806,0,0.000885,0,0
0:2:15.612,236.481,30.1094,0,0.000885,0,0
0:2:16.699,238.064,30.3094,0,0.000885,0,0
0:2:17.786,240.173,30.5782,0,0.000885,0,0
0:2:18.892,242.286,30.8471,0,0.000885,0,0
0:2:19.991,244.688,31.1574,0,0.000885,0,0
0:2:21.085,246.214,31.3505,0,0.000885,0,0
0:2:22.190,248.856,31.6883,0,0.000885,0,0
0:2:23.285,250.319,31.8745,0,0.000885,0,0
0:2:24.393,252.841,32.1916,0,0.000885,0,0
0:2:25.488,256.066,32.6053,0,0.000885,0,0
0:2:26.583,257.592,32.7984,0,0.000885,0,0
0:2:27.686,259.411,33.0259,0,0.000885,0,0
0:2:28.791,261.991,33.3568,0,0.000885,0,0
0:2:29.885,264.278,33.6464,0,0.000885,0,0
0:2:30.991,266.039,33.8739,0,0.000885,0,0
0:2:32.089,268.619,34.2049,0,0.000885,0,0
0:2:33.185,270.79,34.4807,0,0.000885,0,0
0:2:34.290,272.196,34.6599,0,0.000885,0,0
0:2:35.391,274.602,34.9633,0,0.000885,0,0
0:2:36.486,277.298,35.3081,0,0.000885,0,0
0:2:37.591,278.472,35.4528,0,0.000885,0,0
0:2:38.688,281.875,35.8872,0,0.000885,0,0
0:2:39.790,283.868,36.1423,0,0.000885,0,0
0:2:40.887,286.038,36.4181,0,0.000885,0,0
0:2:41.990,287.564,36.6112,0,0.000885,0,0
0:2:43.084,289.735,36.887,0,0.000885,0,0
0:2:44.189,291.843,37.1558,0,0.000885,0,0
0:2:45.285,294.423,37.4868,0,0.000885,0,0
0:2:46.392,296.714,37.7764,0,0.000885,0,0
0:2:47.486,298.471,38.0039,0,0.000885,0,0
0:2:48.587,300.878,38.3073,0,0.000885,0,0
0:2:49.692,302.519,38.521,0,0.000885,0,0
0:2:50.777,305.099,38.8451,0,0.000885,0,0
0:2:51.864,307.034,39.0933,0,0.000885,0,0
0:2:52.963,309.498,39.4035,0,0.000885,0,0
0:2:54.059,311.553,39.6655,0,0.000885,0,0
0:2:55.159,313.368,39.9,0,0.000885,0,0
0:2:56.244,315.948,40.2309,0,0.000885,0,0
0:2:57.332,318.533,40.555,0,0.000885,0,0
0:2:58.429,320.348,40.7894,0,0.000885,0,0
0:2:59.531,321.758,40.9686,0,0.000885,0,0
0:3:0.616,324.395,41.3065,0,0.000885,0,0
0:3:1.703,326.037,41.5133,0,0.000885,0,0
0:3:2.787,328.617,41.8443,0,0.000885,0,0
0:3:3.889,331.317,42.1821,0,0.000885,0,0
0:3:4.991,332.665,42.3545,0,0.000885,0,0
0:3:6.087,334.835,42.6303,0,0.000885,0,0
0:3:7.181,337.358,42.9543,0,0.000885,0,0
0:3:8.288,339.586,43.237,0,0.000885,0,0
0:3:9.394,341.993,43.5404,0,0.000885,0,0
0:3:10.488,343.456,43.7334,0,0.000885,0,0
0:3:11.593,345.333,43.9679,0,0.000885,0,0
0:3:12.688,347.562,44.2506,0,0.000885,0,0
0:3:13.793,350.084,44.5746,0,0.000885,0,0
0:3:14.888,352.606,44.8987,0,0.000885,0,0
0:3:15.994,354.31,45.1124,0,0.000885,0,0
0:3:17.090,356.596,45.402,0,0.000885,0,0
0:3:18.195,358.825,45.6847,0,0.000885,0,0
0:3:19.302,360.702,45.926,0,0.000885,0,0
0:3:20.390,362.285,46.1259,0,0.000885,0,0
0:3:21.494,365.395,46.5258,0,0.000885,0,0
0:3:22.591,367.388,46.774,0,0.000885,0,0
0:3:23.696,369.38,47.0291,0,0.000885,0,0
0:3:24.799,371.315,47.2774,0,0.000885,0,0
0:3:25.883,373.895,47.6083,0,0.000885,0,0
0:3:26.997,376.124,47.891,0,0.000885,0,0
0:3:28.093,377.943,48.1185,0,0.000885,0,0
0:3:29.196,380.292,48.4219,0,0.000885,0,0
0:3:30.291,382.342,48.6839,0,0.000885,0,0
0:3:31.389,384.807,48.9941,0,0.000885,0,0
0:3:32.497,387.093,49.2837,0,0.000885,0,0
0:3:33.595,388.912,49.5181,0,0.000885,0,0
0:3:34.692,390.905,49.7733,0,0.000885,0,0
0:3:35.797,393.37,50.0835,0,0.000885,0,0
0:3:36.891,395.189,50.3179,0,0.000885,0,0
0:3:37.990,397.942,50.6696,0,0.000885,0,0
0:3:39.096,399.468,50.8626,0,0.000885,0,0
0:3:40.200,401.875,51.166,0,0.000885,0,0
0:3:41.297,403.983,51.4349,0,0.000885,0,0
0:3:42.393,406.447,51.752,0,0.000885,0,0
0:3:43.492,408.44,52.0072,0,0.000885,0,0
0:3:44.595,410.495,52.2692,0,0.000885,0,0
0:3:45.694,413.133,52.6001,0,0.000885,0,0
0:3:46.792,414.837,52.8207,0,0.000885,0,0
0:3:47.900,416.42,53.0207,0,0.000885,0,0
0:3:49.005,419.232,53.3792,0,0.000885,0,0
0:3:50.097,421.402,53.655,0,0.000885,0,0
0:3:51.192,423.4,53.9101,0,0.000885,0,0
0:3:52.298,425.922,54.2273,0,0.000885,0,0
0:3:53.392,427.621,54.4479,0,0.000885,0,0
0:3:54.494,429.382,54.6685,0,0.000885,0,0
0:3:55.593,431.842,54.9857,0,0.000885,0,0
0:3:56.700,433.897,55.2477,0,0.000885,0,0
0:3:57.797,436.068,55.5235,0,0.000885,0,0
0:3:58.905,438.648,55.8475,0,0.000885,0,0
0:4:0.002,440.525,56.0889,0,0.000885,0,0
0:4:1.097,442.634,56.3577,0,0.000885,0,0
0:4:2.196,445.098,56.6749,0,0.000885,0,0
0:4:3.293,447.269,56.9507,0,0.000885,0,0
0:4:4.400,449.088,57.1782,0,0.000885,0,0
0:4:5.502,451.081,57.4333,0,0.000885,0,0
0:4:6.595,453.545,57.7436,0,0.000885,0,0
0:4:7.700,454.248,57.8332,0,0.000885,0,0
0:4:8.799,456.361,58.1021,0,0.000885,0,0
0:4:9.900,456.886,58.1711,0,0.000885,0,0
0:4:10.996,459.822,58.5434,0,0.000885,0,0
0:4:12.088,459.644,58.5227,0,0.000885,0,0
0:4:13.199,435.654,55.4683,0,0.000885,0,0
0:4:14.300,401.109,51.0695,0,0.000885,0,0
0:4:15.395,404.161,51.4625,0,0.000885,0,0
0:4:16.501,405.157,51.5866,0,0.000885,0,0
0:4:17.595,407.622,51.8968,0,0.000885,0,0
0:4:18.701,409.966,52.2002,0,0.000885,0,0
0:4:19.794,413.253,52.6139,0,0.000885,0,0
0:4:20.899,416.007,52.9655,0,0.000885,0,0
0:4:21.995,409.379,52.1244,0,0.000885,0,0
0:4:23.100,411.256,52.3657,0,0.000885,0,0
0:4:24.203,412.608,52.5381,0,0.000885,0,0
0:4:25.302,413.898,52.6966,0,0.000885,0,0
0:4:26.391,414.837,52.8207,0,0.000885,0,0
0:4:27.496,414.952,52.8345,0,0.000885,0,0
0:4:28.600,410.904,52.3174,0,0.000885,0,0
0:4:29.701,410.553,52.276,0,0.000885,0,0
0:4:30.792,409.263,52.1106,0,0.000885,0,0
0:4:31.895,403.044,51.3177,0,0.000885,0,0
0:4:32.997,394.953,50.2835,0,0.000885,0,0
0:4:34.097,390.025,49.6629,0,0.000885,0,0
0:4:35.187,384.277,48.9252,0,0.000885,0,0
0:4:36.293,371.96,47.3601,0,0.000885,0,0
0:4:37.400,353.193,44.9676,0,0.000885,0,0
0:4:38.506,336.655,42.8647,0,0.000885,0,0
0:4:39.569,323.75,41.2238,0,0.000885,0,0