File: DataFile2021-06-29_055520.csv
Test ID:,Date Tested:,Time:,Test Type:,Diameter Avg. (mm):,Cyl. Corr. Factor:,Height (mm):,Age (days):,Weight (kN):,Break Type:,Ramp Rate (MPa/s):,Load at Break (kN):,Stress at Break (MPa):
12,6/29/2021,05:55,Cylinder,100,1,200,0,3.6,3,0.23,235.01,29.92
Sample Time,Load (kN),Stress (MPa),Long. Strain,Trans. Strain,Chan1 Deflection (mm),Chan2 Deflection (mm)
0:0:22.483,5.28004,0.668791,0,0.000885,0,0
0:0:23.081,9.73716,1.24106,0,0.000885,0,0
0:0:23.690,17.0678,2.17185,0,0.000885,0,0
0:0:24.287,16.7164,2.13048,0,0.000885,0,0
0:0:24.877,16.1293,2.05464,0,0.000885,0,0
0:0:25.481,15.8935,2.02706,0,0.000885,0,0
0:0:26.089,15.6577,1.99258,0,0.000885,0,0
0:0:26.695,15.4843,1.9719,0,0.000885,0,0
0:0:27.291,15.72,1.99948,0,0.000885,0,0
0:0:27.887,15.3686,1.95811,0,0.000885,0,0
0:0:28.493,16.365,2.08222,0,0.000885,0,0
0:0:29.097,17.0678,2.17185,0,0.000885,0,0
0:0:29.698,18.3578,2.33732,0,0.000885,0,0
0:0:30.295,19.9992,2.54417,0,0.000885,0,0
0:0:30.892,21.1157,2.68896,0,0.000885,0,0
0:0:31.488,23.0507,2.93717,0,0.000885,0,0
0:0:32.093,25.1013,3.19917,0,0.000885,0,0
0:0:32.691,26.0977,3.32327,0,0.000885,0,0
0:0:33.301,26.8628,3.4198,0,0.000885,0,0
0:0:33.908,27.7436,3.53012,0,0.000885,0,0
0:0:34.509,28.74,3.66112,0,0.000885,0,0
0:0:35.106,29.6207,3.77143,0,0.000885,0,0
0:0:35.704,30.9107,3.93691,0,0.000885,0,0
0:0:36.302,32.432,4.12996,0,0.000885,0,0
0:0:36.900,33.7842,4.30233,0,0.000885,0,0
0:0:37.496,34.7806,4.42643,0,0.000885,0,0
0:0:38.097,35.777,4.55743,0,0.000885,0,0
0:0:38.705,37.067,4.72291,0,0.000885,0,0
0:0:39.312,37.9478,4.83322,0,0.000885,0,0
0:0:39.910,39.5313,5.03317,0,0.000885,0,0
0:0:40.509,40.4699,5.15038,0,0.000885,0,0
0:0:41.105,41.8177,5.32275,0,0.000885,0,0
0:0:41.700,43.1077,5.48823,0,0.000885,0,0
0:0:42.296,43.8105,5.57786,0,0.000885,0,0
0:0:42.895,45.572,5.80539,0,0.000885,0,0
0:0:43.503,46.4528,5.9157,0,0.000885,0,0
0:0:44.111,47.7428,6.08118,0,0.000885,0,0
0:0:44.712,48.8548,6.21907,0,0.000885,0,0
0:0:45.307,49.442,6.29491,0,0.000885,0,0
0:0:45.904,51.0834,6.50176,0,0.000885,0,0
0:0:46.503,52.6669,6.7086,0,0.000885,0,0
0:0:47.103,53.3698,6.79823,0,0.000885,0,0
0:0:47.702,54.9533,6.99818,0,0.000885,0,0
0:0:48.311,55.7763,7.1016,0,0.000885,0,0
0:0:48.917,57.1863,7.28086,0,0.000885,0,0
0:0:49.514,58.4763,7.44634,0,0.000885,0,0
0:0:50.113,59.2948,7.54976,0,0.000885,0,0
0:0:50.710,60.8784,7.74971,0,0.000885,0,0
0:0:51.309,61.4655,7.82555,0,0.000885,0,0
0:0:51.905,62.6977,7.98413,0,0.000885,0,0
0:0:52.498,64.1656,8.17029,0,0.000885,0,0
0:0:53.104,65.5134,8.34266,0,0.000885,0,0
0:0:53.711,66.452,8.45987,0,0.000885,0,0
0:0:54.317,68.0355,8.65982,0,0.000885,0,0
0:0:54.915,68.5604,8.72876,0,0.000885,0,0
0:0:55.510,69.499,8.84597,0,0.000885,0,0
0:0:56.105,71.2605,9.0735,0,0.000885,0,0
0:0:56.701,72.4348,9.22519,0,0.000885,0,0
0:0:57.300,73.4312,9.34929,0,0.000885,0,0
0:0:57.898,74.8369,9.52855,0,0.000885,0,0
0:0:58.507,76.069,9.68713,0,0.000885,0,0
0:0:59.112,77.1855,9.82503,0,0.000885,0,0
0:0:59.712,78.4177,9.98361,0,0.000885,0,0
0:1:0.307,79.2362,10.087,0,0.000885,0,0
0:1:0.905,80.6463,10.2663,0,0.000885,0,0
0:1:1.503,81.874,10.4249,0,0.000885,0,0
0:1:2.100,82.9326,10.5559,0,0.000885,0,0
0:1:2.697,83.8712,10.68,0,0.000885,0,0
0:1:3.297,85.6905,10.9075,0,0.000885,0,0
0:1:3.906,86.509,11.0178,0,0.000885,0,0
0:1:4.511,87.9769,11.204,0,0.000885,0,0
0:1:5.110,89.0312,11.335,0,0.000885,0,0
0:1:5.707,90.5569,11.528,0,0.000885,0,0
0:1:6.302,91.4376,11.6452,0,0.000885,0,0
0:1:6.899,92.434,11.7694,0,0.000885,0,0
0:1:7.495,93.5461,11.9141,0,0.000885,0,0
0:1:8.104,94.7204,12.0589,0,0.000885,0,0
0:1:8.711,96.1261,12.2382,0,0.000885,0,0
0:1:9.314,97.3004,12.3899,0,0.000885,0,0
0:1:9.911,98.5326,12.5485,0,0.000885,0,0
0:1:10.505,98.884,12.5898,0,0.000885,0,0
0:1:11.102,100.352,12.776,0,0.000885,0,0
0:1:11.699,101.935,12.9759,0,0.000885,0,0
0:1:12.298,103.168,13.1345,0,0.000885,0,0
0:1:12.895,104.28,13.2793,0,0.000885,0,0
0:1:13.504,104.925,13.362,0,0.000885,0,0
0:1:14.110,106.566,13.5689,0,0.000885,0,0
0:1:14.709,107.918,13.7413,0,0.000885,0,0
0:1:15.308,108.857,13.8585,0,0.000885,0,0
0:1:15.905,110.263,14.0377,0,0.000885,0,0
0:1:16.505,111.143,14.148,0,0.000885,0,0
0:1:17.100,112.024,14.2653,0,0.000885,0,0
0:1:17.696,113.372,14.4376,0,0.000885,0,0
0:1:18.299,114.84,14.6238,0,0.000885,0,0
0:1:18.908,115.836,14.7479,0,0.000885,0,0
0:1:19.514,117.126,14.9134,0,0.000885,0,0
0:1:20.112,118.18,15.0444,0,0.000885,0,0
0:1:20.709,119.355,15.196,0,0.000885,0,0
0:1:21.304,120.702,15.3684,0,0.000885,0,0
0:1:21.900,122.05,15.5408,0,0.000885,0,0
0:1:22.496,123.282,15.6994,0,0.000885,0,0
0:1:23.104,123.927,15.7821,0,0.000885,0,0
0:1:23.712,125.805,16.0165,0,0.000885,0,0
0:1:24.316,126.628,16.1199,0,0.000885,0,0
0:1:24.911,127.566,16.244,0,0.000885,0,0
0:1:25.505,128.678,16.3819,0,0.000885,0,0
0:1:26.105,130.497,16.6164,0,0.000885,0,0
0:1:26.703,131.378,16.7267,0,0.000885,0,0
0:1:27.303,131.845,16.7887,0,0.000885,0,0
0:1:27.900,134.074,17.0714,0,0.000885,0,0
0:1:28.509,135.19,17.2162,0,0.000885,0,0
0:1:29.115,135.778,17.2852,0,0.000885,0,0
0:1:29.714,137.299,17.4851,0,0.000885,0,0
0:1:30.313,138.531,17.6368,0,0.000885,0,0
0:1:30.912,139.296,17.7333,0,0.000885,0,0
0:1:31.509,141.053,17.9608,0,0.000885,0,0
0:1:32.103,142.405,18.1332,0,0.000885,0,0
0:1:32.698,143.05,18.2159,0,0.000885,0,0
0:1:33.305,144.162,18.3538,0,0.000885,0,0
0:1:33.911,145.337,18.5055,0,0.000885,0,0
0:1:34.515,146.097,18.6021,0,0.000885,0,0
0:1:35.111,147.975,18.8434,0,0.000885,0,0
0:1:35.707,148.855,18.9537,0,0.000885,0,0
0:1:36.307,150.03,19.1054,0,0.000885,0,0
0:1:36.905,151.2,19.2502,0,0.000885,0,0
0:1:37.502,152.667,19.4363,0,0.000885,0,0
0:1:38.100,153.49,19.5397,0,0.000885,0,0
0:1:38.709,154.896,19.719,0,0.000885,0,0
0:1:39.314,156.07,19.8707,0,0.000885,0,0
0:1:39.913,157.418,20.0431,0,0.000885,0,0
0:1:40.511,158.65,20.2016,0,0.000885,0,0
0:1:41.109,159.411,20.2982,0,0.000885,0,0
0:1:41.707,160.763,20.4705,0,0.000885,0,0
0:1:42.302,161.933,20.6153,0,0.000885,0,0
0:1:42.902,163.05,20.7601,0,0.000885,0,0
0:1:43.511,164.34,20.9256,0,0.000885,0,0
0:1:44.117,165.278,21.0428,0,0.000885,0,0
0:1:44.715,166.684,21.2221,0,0.000885,0,0
0:1:45.314,167.8,21.3669,0,0.000885,0,0
0:1:45.910,169.326,21.5599,0,0.000885,0,0
0:1:46.505,170.144,21.6633,0,0.000885,0,0
0:1:47.101,171.199,21.8012,0,0.000885,0,0
0:1:47.698,172.431,21.9529,0,0.000885,0,0
0:1:48.307,173.605,22.1046,0,0.000885,0,0
0:1:48.915,175.131,22.2976,0,0.000885,0,0
0:1:49.518,176.07,22.4149,0,0.000885,0,0
0:1:50.111,177.359,22.5803,0,0.000885,0,0
0:1:50.707,178.004,22.6631,0,0.000885,0,0
0:1:51.306,179.762,22.8906,0,0.000885,0,0
0:1:51.905,180.994,23.0423,0,0.000885,0,0
0:1:52.503,181.639,23.125,0,0.000885,0,0
0:1:53.102,183.049,23.3043,0,0.000885,0,0
0:1:53.711,184.223,23.456,0,0.000885,0,0
0:1:54.317,185.807,23.6559,0,0.000885,0,0
0:1:54.914,186.452,23.7386,0,0.000885,0,0
0:1:55.514,187.506,23.8765,0,0.000885,0,0
0:1:56.110,188.56,24.0075,0,0.000885,0,0
0:1:56.709,190.264,24.2282,0,0.000885,0,0
0:1:57.304,191.024,24.3247,0,0.000885,0,0
0:1:57.907,192.199,24.4695,0,0.000885,0,0
0:1:58.513,193.604,24.6488,0,0.000885,0,0
0:1:59.114,195.072,24.8349,0,0.000885,0,0
0:1:59.706,196.069,24.9659,0,0.000885,0,0
0:2:0.301,197.71,25.1728,0,0.000885,0,0
0:2:0.889,198.413,25.2624,0,0.000885,0,0
0:2:1.501,199.236,25.3658,0,0.000885,0,0
0:2:2.093,199.996,25.4623,0,0.000885,0,0
0:2:2.687,201.286,25.6278,0,0.000885,0,0
0:2:3.291,203.399,25.8967,0,0.000885,0,0
0:2:3.892,204.516,26.0415,0,0.000885,0,0
0:2:4.500,205.512,26.1656,0,0.000885,0,0
0:2:5.102,206.682,26.3173,0,0.000885,0,0
0:2:5.704,207.799,26.4552,0,0.000885,0,0
0:2:6.299,208.622,26.5655,0,0.000885,0,0
0:2:6.902,210.027,26.7448,0,0.000885,0,0
0:2:7.494,211.081,26.8758,0,0.000885,0,0
0:2:8.090,212.607,27.0688,0,0.000885,0,0
0:2:8.692,213.31,27.1584,0,0.000885,0,0
0:2:9.294,214.6,27.3239,0,0.000885,0,0
0:2:9.890,216.126,27.517,0,0.000885,0,0
0:2:10.484,216.833,27.6066,0,0.000885,0,0
0:2:11.076,217.767,27.7238,0,0.000885,0,0
0:2:11.668,219.351,27.9307,0,0.000885,0,0
0:2:12.258,220.645,28.0961,0,0.000885,0,0
0:2:12.860,221.112,28.1513,0,0.000885,0,0
0:2:13.462,222.229,28.2961,0,0.000885,0,0
0:2:14.064,224.044,28.5236,0,0.000885,0,0
0:2:14.657,224.457,28.5788,0,0.000885,0,0
0:2:15.250,226.334,28.8201,0,0.000885,0,0
0:2:15.841,227.211,28.9304,0,0.000885,0,0
0:2:16.431,228.385,29.0821,0,0.000885,0,0
0:2:17.026,229.559,29.2269,0,0.000885,0,0
0:2:17.618,230.378,29.3303,0,0.000885,0,0
0:2:18.223,231.788,29.5096,0,0.000885,0,0
0:2:18.823,232.255,29.5716,0,0.000885,0,0
0:2:19.420,233.487,29.7302,0,0.000885,0,0
0:2:20.013,234.132,29.8129,0,0.000885,0,0
0:2:20.605,234.955,29.9164,0,0.000885,0,0
0:2:21.199,234.835,29.9026,0,0.000885,0,0
0:2:21.802,234.897,29.9095,0,0.000885,0,0
0:2:22.404,233.781,29.7647,0,0.000885,0,0
0:2:23.004,230.729,29.3786,0,0.000885,0,0
0:2:23.607,225.396,28.696,0,0.000885,0,0
0:2:24.206,209.267,26.6413,0,0.000885,0,0
0:2:24.800,189.089,24.0765,0,0.000885,0,0
0:2:25.237,170.789,21.7461,0,0.000885,0,0