File: DataFile2021-07-25_063839.csv
Test ID:,Date Tested:,Time:,Test Type:,Diameter Avg. (mm):,Cyl. Corr. Factor:,Height (mm):,Age (days):,Weight (kN):,Break Type:,Ramp Rate (MPa/s):,Load at Break (kN):,Stress at Break (MPa):
12,7/25/2021,06:38,Cylinder,150,1,300,0,3.89,3,0.32,596.36,33.75
Sample Time,Load (kN),Stress (MPa),Long. Strain,Trans. Strain,Chan1 Deflection (mm),Chan2 Deflection (mm)
0:0:16.683,6.44992,0.365422,0,0.000885,0,0
0:0:17.180,10.4978,0.592949,0,0.000885,0,0
0:0:17.678,11.085,0.627423,0,0.000885,0,0
0:0:18.175,14.0163,0.792897,0,0.000885,0,0
0:0:18.674,15.9513,0.903213,0,0.000885,0,0
0:0:19.172,18.767,1.06179,0,0.000885,0,0
0:0:19.668,21.7607,1.23416,0,0.000885,0,0
0:0:20.168,25.7463,1.45479,0,0.000885,0,0
0:0:20.664,27.0986,1.53064,0,0.000885,0,0
0:0:21.163,29.385,1.66164,0,0.000885,0,0
0:0:21.660,31.3778,1.77885,0,0.000885,0,0
0:0:22.160,33.6063,1.90295,0,0.000885,0,0
0:0:22.668,35.3055,1.99948,0,0.000885,0,0
0:0:23.174,37.5964,2.13048,0,0.000885,0,0
0:0:23.680,40.2342,2.27527,0,0.000885,0,0
0:0:24.178,42.6985,2.41317,0,0.000885,0,0
0:0:24.676,44.8692,2.53727,0,0.000885,0,0
0:0:25.174,47.507,2.68896,0,0.000885,0,0
0:0:25.672,49.5576,2.80617,0,0.000885,0,0
0:0:26.170,51.0834,2.8889,0,0.000885,0,0
0:0:26.667,53.7834,3.04059,0,0.000885,0,0
0:0:27.165,57.6534,3.26122,0,0.000885,0,0
0:0:27.670,60.6426,3.43359,0,0.000885,0,0
0:0:28.178,63.7519,3.60596,0,0.000885,0,0
0:0:28.682,67.6841,3.83349,0,0.000885,0,0
0:0:29.181,70.9091,4.01275,0,0.000885,0,0
0:0:29.679,74.8947,4.24028,0,0.000885,0,0
0:0:30.176,78.7068,4.45401,0,0.000885,0,0
0:0:30.674,81.8161,4.63328,0,0.000885,0,0
0:0:31.171,86.1576,4.87459,0,0.000885,0,0
0:0:31.670,90.1477,5.10212,0,0.000885,0,0
0:0:32.176,93.4883,5.28828,0,0.000885,0,0
0:0:32.683,97.4205,5.51581,0,0.000885,0,0
0:0:33.187,101.348,5.73644,0,0.000885,0,0
0:0:33.686,104.982,5.94328,0,0.000885,0,0
0:0:34.183,108.15,6.12254,0,0.000885,0,0
0:0:34.682,112.727,6.37765,0,0.000885,0,0
0:0:35.180,117.771,6.66723,0,0.000885,0,0
0:0:35.678,121.583,6.88097,0,0.000885,0,0
0:0:36.176,126.628,7.16365,0,0.000885,0,0
0:0:36.674,131.494,7.43944,0,0.000885,0,0
0:0:37.178,134.194,7.59113,0,0.000885,0,0
0:0:37.687,137.886,7.80487,0,0.000885,0,0
0:0:38.192,141.289,7.99792,0,0.000885,0,0
0:0:38.692,144.34,8.17029,0,0.000885,0,0
0:0:39.192,146.097,8.26681,0,0.000885,0,0
0:0:39.691,148.21,8.38402,0,0.000885,0,0
0:0:40.189,150.79,8.53571,0,0.000885,0,0
0:0:40.684,152.961,8.65292,0,0.000885,0,0
0:0:41.184,155.892,8.81839,0,0.000885,0,0
0:0:41.682,159.825,9.04592,0,0.000885,0,0
0:0:42.180,162.169,9.17692,0,0.000885,0,0
0:0:42.687,165.1,9.3424,0,0.000885,0,0
0:0:43.194,168.739,9.54924,0,0.000885,0,0
0:0:43.699,172.782,9.77677,0,0.000885,0,0
0:0:44.196,175.425,9.92845,0,0.000885,0,0
0:0:44.695,178.827,10.1215,0,0.000885,0,0
0:0:45.192,182.284,10.3146,0,0.000885,0,0
0:0:45.690,184.512,10.4387,0,0.000885,0,0
0:0:46.186,188.329,10.6593,0,0.000885,0,0
0:0:46.685,191.669,10.8455,0,0.000885,0,0
0:0:47.178,194.369,10.9971,0,0.000885,0,0
0:0:47.682,198.062,11.2109,0,0.000885,0,0
0:0:48.184,201.758,11.4177,0,0.000885,0,0
0:0:48.686,204.689,11.5832,0,0.000885,0,0
0:0:49.178,207.332,11.7349,0,0.000885,0,0
0:0:49.672,209.912,11.8797,0,0.000885,0,0
0:0:50.166,212.785,12.0382,0,0.000885,0,0
0:0:50.661,215.659,12.2037,0,0.000885,0,0
0:0:51.155,218.941,12.3899,0,0.000885,0,0
0:0:51.649,221.815,12.5554,0,0.000885,0,0
0:0:52.153,224.337,12.6932,0,0.000885,0,0
0:0:52.655,227.856,12.8932,0,0.000885,0,0
0:0:53.156,231.668,13.1069,0,0.000885,0,0
0:0:53.651,234.016,13.2448,0,0.000885,0,0
0:0:54.146,237.299,13.431,0,0.000885,0,0
0:0:54.638,241.054,13.6378,0,0.000885,0,0
0:0:55.145,243.34,13.7688,0,0.000885,0,0
0:0:55.649,246.565,13.955,0,0.000885,0,0
0:0:56.145,249.559,14.1205,0,0.000885,0,0
0:0:56.636,252.081,14.2653,0,0.000885,0,0
0:0:57.133,255.421,14.4514,0,0.000885,0,0
0:0:57.637,259.002,14.6583,0,0.000885,0,0
0:0:58.138,261.64,14.803,0,0.000885,0,0
0:0:58.638,265.158,15.003,0,0.000885,0,0
0:0:59.132,268.855,15.2167,0,0.000885,0,0
0:0:59.626,271.435,15.3615,0,0.000885,0,0
0:1:0.120,274.486,15.5339,0,0.000885,0,0
0:1:0.635,277.885,15.7269,0,0.000885,0,0
0:1:1.150,281.523,15.9338,0,0.000885,0,0
0:1:1.644,283.81,16.0579,0,0.000885,0,0
0:1:2.147,286.683,16.2234,0,0.000885,0,0
0:1:2.650,289.793,16.3957,0,0.000885,0,0
0:1:3.154,292.666,16.5612,0,0.000885,0,0
0:1:3.654,296.243,16.7612,0,0.000885,0,0
0:1:4.149,299.41,16.9404,0,0.000885,0,0
0:1:4.644,301.99,17.0921,0,0.000885,0,0
0:1:5.146,304.863,17.2507,0,0.000885,0,0
0:1:5.638,308.03,17.4299,0,0.000885,0,0
0:1:6.132,310.615,17.5747,0,0.000885,0,0
0:1:6.635,314.133,17.7747,0,0.000885,0,0
0:1:7.140,317.416,17.9608,0,0.000885,0,0
0:1:7.643,320.819,18.1539,0,0.000885,0,0
0:1:8.145,323.163,18.2849,0,0.000885,0,0
0:1:8.638,327.096,18.5124,0,0.000885,0,0
0:1:9.133,329.675,18.6572,0,0.000885,0,0
0:1:9.628,332.371,18.8089,0,0.000885,0,0
0:1:10.122,336.068,19.0157,0,0.000885,0,0
0:1:10.616,338.825,19.1743,0,0.000885,0,0
0:1:11.111,341.699,19.3329,0,0.000885,0,0
0:1:11.605,345.097,19.526,0,0.000885,0,0
0:1:12.104,348.265,19.7052,0,0.000885,0,0
0:1:12.609,351.143,19.8707,0,0.000885,0,0
0:1:13.110,354.719,20.0706,0,0.000885,0,0
0:1:13.610,358.353,20.2775,0,0.000885,0,0
0:1:14.105,360.817,20.4154,0,0.000885,0,0
0:1:14.600,363.518,20.574,0,0.000885,0,0
0:1:15.093,367.094,20.7739,0,0.000885,0,0
0:1:15.589,369.207,20.8911,0,0.000885,0,0
0:1:16.082,372.725,21.0911,0,0.000885,0,0
0:1:16.577,375.83,21.2703,0,0.000885,0,0
0:1:17.070,378.646,21.4289,0,0.000885,0,0
0:1:17.574,381.582,21.5944,0,0.000885,0,0
0:1:18.076,385.158,21.7943,0,0.000885,0,0
0:1:18.575,387.738,21.9391,0,0.000885,0,0
0:1:19.070,390.554,22.0977,0,0.000885,0,0
0:1:19.564,394.366,22.3183,0,0.000885,0,0
0:1:20.058,396.772,22.4493,0,0.000885,0,0
0:1:20.552,400.585,22.67,0,0.000885,0,0
0:1:21.046,403.689,22.8423,0,0.000885,0,0
0:1:21.538,405.98,22.9733,0,0.000885,0,0
0:1:22.045,409.441,23.1664,0,0.000885,0,0
0:1:22.546,413.075,23.3732,0,0.000885,0,0
0:1:23.047,415.419,23.5111,0,0.000885,0,0
0:1:23.552,418.88,23.7042,0,0.000885,0,0
0:1:24.046,421.754,23.8696,0,0.000885,0,0
0:1:24.539,425.214,24.0627,0,0.000885,0,0
0:1:25.042,427.327,24.1799,0,0.000885,0,0
0:1:25.537,431.375,24.4074,0,0.000885,0,0
0:1:26.041,435.187,24.6281,0,0.000885,0,0
0:1:26.545,437.767,24.7729,0,0.000885,0,0
0:1:27.042,440.405,24.9245,0,0.000885,0,0
0:1:27.549,443.692,25.1107,0,0.000885,0,0
0:1:28.050,446.094,25.2417,0,0.000885,0,0
0:1:28.549,449.733,25.4485,0,0.000885,0,0
0:1:29.042,453.131,25.6416,0,0.000885,0,0
0:1:29.537,455.302,25.7657,0,0.000885,0,0
0:1:30.040,458.883,25.9657,0,0.000885,0,0
0:1:30.533,462.344,26.1656,0,0.000885,0,0
0:1:31.027,464.866,26.3035,0,0.000885,0,0
0:1:31.522,467.797,26.469,0,0.000885,0,0
0:1:32.016,471.2,26.662,0,0.000885,0,0
0:1:32.516,473.896,26.8137,0,0.000885,0,0
0:1:33.020,477.65,27.0274,0,0.000885,0,0
0:1:33.522,481.053,27.2205,0,0.000885,0,0
0:1:34.016,484.394,27.4136,0,0.000885,0,0
0:1:34.512,486.213,27.517,0,0.000885,0,0
0:1:35.004,489.496,27.7031,0,0.000885,0,0
0:1:35.499,492.369,27.8617,0,0.000885,0,0
0:1:35.992,495.599,28.0479,0,0.000885,0,0
0:1:36.486,498.472,28.2065,0,0.000885,0,0
0:1:36.992,502.049,28.4133,0,0.000885,0,0
0:1:37.495,504.571,28.5512,0,0.000885,0,0
0:1:37.996,508.031,28.7511,0,0.000885,0,0
0:1:38.489,510.789,28.9028,0,0.000885,0,0
0:1:38.982,513.543,29.0614,0,0.000885,0,0
0:1:39.478,517.826,29.3027,0,0.000885,0,0
0:1:39.971,521.051,29.4889,0,0.000885,0,0
0:1:40.465,522.871,29.5854,0,0.000885,0,0
0:1:40.961,526.153,29.7716,0,0.000885,0,0
0:1:41.456,530.023,29.9922,0,0.000885,0,0
0:1:41.955,532.897,30.1577,0,0.000885,0,0
0:1:42.459,535.77,30.3162,0,0.000885,0,0
0:1:42.959,539.116,30.5093,0,0.000885,0,0
0:1:43.459,541.522,30.6472,0,0.000885,0,0
0:1:43.955,545.214,30.854,0,0.000885,0,0
0:1:44.449,547.794,30.9988,0,0.000885,0,0
0:1:44.951,550.143,31.1298,0,0.000885,0,0
0:1:45.443,553.252,31.3091,0,0.000885,0,0
0:1:45.939,557.002,31.5228,0,0.000885,0,0
0:1:46.443,559.466,31.6607,0,0.000885,0,0
0:1:46.936,562.691,31.84,0,0.000885,0,0
0:1:47.442,565.978,32.0261,0,0.000885,0,0
0:1:47.943,568.087,32.1503,0,0.000885,0,0
0:1:48.444,571.374,32.3364,0,0.000885,0,0
0:1:48.938,574.777,32.5226,0,0.000885,0,0
0:1:49.456,577.708,32.6949,0,0.000885,0,0
0:1:49.949,580.288,32.8397,0,0.000885,0,0
0:1:50.443,583.455,33.019,0,0.000885,0,0
0:1:50.936,586.623,33.1983,0,0.000885,0,0
0:1:51.441,588.851,33.3224,0,0.000885,0,0
0:1:51.956,591.08,33.4465,0,0.000885,0,0
0:1:52.461,593.077,33.5637,0,0.000885,0,0
0:1:52.966,594.661,33.6533,0,0.000885,0,0
0:1:53.469,595.95,33.7223,0,0.000885,0,0
0:1:53.966,596.658,33.7636,0,0.000885,0,0
0:1:54.460,595.132,33.6809,0,0.000885,0,0
0:1:54.956,593.602,33.5913,0,0.000885,0,0
0:1:55.452,591.783,33.4878,0,0.000885,0,0
0:1:55.943,590.141,33.3982,0,0.000885,0,0
0:1:56.444,589.145,33.3362,0,0.000885,0,0
0:1:56.946,586.445,33.1845,0,0.000885,0,0
0:1:57.445,581.694,32.9156,0,0.000885,0,0
0:1:57.945,573.367,32.4467,0,0.000885,0,0
0:1:58.436,541.931,30.6679,0,0.000885,0,0
0:1:58.932,487.619,27.5928,0,0.000885,0,0
0:1:59.442,456.183,25.814,0,0.000885,0,0
0:1:59.846,427.212,24.173,0,0.000885,0,0