File: DataFile2021-07-28_093856.csv
Test ID:,Date Tested:,Time:,Test Type:,Diameter Avg. (mm):,Cyl. Corr. Factor:,Height (mm):,Age (days):,Weight (kN):,Break Type:,Ramp Rate (MPa/s):,Load at Break (kN):,Stress at Break (MPa):
12,7/28/2021,09:38,Cylinder,150,1,300,0,13.69,3,0.3,1132.94,64.11
Sample Time,Load (kN),Stress (MPa),Long. Strain,Trans. Strain,Chan1 Deflection (mm),Chan2 Deflection (mm)
0:0:6.004,5.04428,0.282685,0,0.000885,0,0
0:0:6.906,10.5556,0.599844,0,0.000885,0,0
0:0:7.804,15.3686,0.868739,0,0.000885,0,0
0:0:8.701,21.347,1.20658,0,0.000885,0,0
0:0:9.619,26.3913,1.49616,0,0.000885,0,0
0:0:10.513,32.0227,1.81332,0,0.000885,0,0
0:0:11.424,38.4727,2.17874,0,0.000885,0,0
0:0:12.336,45.8656,2.59243,0,0.000885,0,0
0:0:13.240,52.6091,2.97854,0,0.000885,0,0
0:0:14.133,57.0662,3.22675,0,0.000885,0,0
0:0:15.028,61.5234,3.48185,0,0.000885,0,0
0:0:15.928,66.452,3.75764,0,0.000885,0,0
0:0:16.831,72.6661,4.10928,0,0.000885,0,0
0:0:17.741,78.4755,4.44022,0,0.000885,0,0
0:0:18.635,83.929,4.75049,0,0.000885,0,0
0:0:19.534,89.3247,5.05386,0,0.000885,0,0
0:0:20.431,95.8369,5.42617,0,0.000885,0,0
0:0:21.324,100.703,5.70196,0,0.000885,0,0
0:0:22.236,105.983,5.99844,0,0.000885,0,0
0:0:23.145,111.673,6.32249,0,0.000885,0,0
0:0:24.039,116.948,6.61897,0,0.000885,0,0
0:0:24.932,123.225,6.9706,0,0.000885,0,0
0:0:25.830,128.914,7.29465,0,0.000885,0,0
0:0:26.738,133.9,7.57734,0,0.000885,0,0
0:0:27.647,139.821,7.91518,0,0.000885,0,0
0:0:28.541,145.862,8.25302,0,0.000885,0,0
0:0:29.438,149.794,8.47366,0,0.000885,0,0
0:0:30.335,155.835,8.81839,0,0.000885,0,0
0:0:31.231,162.578,9.19761,0,0.000885,0,0
0:0:32.143,167.329,9.4665,0,0.000885,0,0
0:0:33.048,173.138,9.79745,0,0.000885,0,0
0:0:33.946,179.294,10.1491,0,0.000885,0,0
0:0:34.843,184.161,10.4249,0,0.000885,0,0
0:0:35.736,189.85,10.742,0,0.000885,0,0
0:0:36.635,195.891,11.0868,0,0.000885,0,0
0:0:37.540,200.584,11.3488,0,0.000885,0,0
0:0:38.434,206.567,11.6866,0,0.000885,0,0
0:0:39.321,211.317,11.9555,0,0.000885,0,0
0:0:40.221,217.536,12.3071,0,0.000885,0,0
0:0:41.112,223.341,12.6381,0,0.000885,0,0
0:0:42.009,228.621,12.9346,0,0.000885,0,0
0:0:42.911,234.31,13.2586,0,0.000885,0,0
0:0:43.812,240.115,13.5896,0,0.000885,0,0
0:0:44.716,244.808,13.8516,0,0.000885,0,0
0:0:45.603,250.964,14.2032,0,0.000885,0,0
0:0:46.506,256.596,14.5204,0,0.000885,0,0
0:0:47.409,261.756,14.8099,0,0.000885,0,0
0:0:48.305,267.738,15.1478,0,0.000885,0,0
0:0:49.203,273.779,15.4925,0,0.000885,0,0
0:0:50.110,278.356,15.7545,0,0.000885,0,0
0:0:51.004,284.339,16.0924,0,0.000885,0,0
0:0:51.904,289.263,16.3682,0,0.000885,0,0
0:0:52.804,295.304,16.7129,0,0.000885,0,0
0:0:53.694,301.287,17.0507,0,0.000885,0,0
0:0:54.585,306.158,17.3265,0,0.000885,0,0
0:0:55.475,311.26,17.6161,0,0.000885,0,0
0:0:56.362,316.829,17.9264,0,0.000885,0,0
0:0:57.268,322.754,18.2642,0,0.000885,0,0
0:0:58.169,329.146,18.6227,0,0.000885,0,0
0:0:59.056,333.897,18.8916,0,0.000885,0,0
0:0:59.942,339.88,19.2364,0,0.000885,0,0
0:1:0.831,344.924,19.5191,0,0.000885,0,0
0:1:1.735,349.733,19.788,0,0.000885,0,0
0:1:2.639,355.773,20.1327,0,0.000885,0,0
0:1:3.528,360.995,20.4292,0,0.000885,0,0
0:1:4.419,367.388,20.7877,0,0.000885,0,0
0:1:5.320,373.664,21.1462,0,0.000885,0,0
0:1:6.227,378.063,21.3944,0,0.000885,0,0
0:1:7.132,383.868,21.7254,0,0.000885,0,0
0:1:8.030,389.967,22.0701,0,0.000885,0,0
0:1:8.923,394.717,22.339,0,0.000885,0,0
0:1:9.809,400.171,22.6424,0,0.000885,0,0
0:1:10.715,406.154,22.9802,0,0.000885,0,0
0:1:11.623,411.963,23.3112,0,0.000885,0,0
0:1:12.526,417.884,23.649,0,0.000885,0,0
0:1:13.423,423.631,23.9731,0,0.000885,0,0
0:1:14.319,428.559,24.2489,0,0.000885,0,0
0:1:15.220,433.955,24.5591,0,0.000885,0,0
0:1:16.119,438.648,24.8211,0,0.000885,0,0
0:1:17.025,444.511,25.1521,0,0.000885,0,0
0:1:17.916,450.965,25.5175,0,0.000885,0,0
0:1:18.820,455.716,25.7864,0,0.000885,0,0
0:1:19.721,462.108,26.1518,0,0.000885,0,0
0:1:20.619,467.388,26.4483,0,0.000885,0,0
0:1:21.512,472.428,26.731,0,0.000885,0,0
0:1:22.415,478.469,27.0757,0,0.000885,0,0
0:1:23.310,484.514,27.4204,0,0.000885,0,0
0:1:24.219,489.909,27.7238,0,0.000885,0,0
0:1:25.126,494.891,28.0065,0,0.000885,0,0
0:1:26.015,500.874,28.3443,0,0.000885,0,0
0:1:26.927,505.625,28.6132,0,0.000885,0,0
0:1:27.829,511.786,28.958,0,0.000885,0,0
0:1:28.715,518.12,29.3165,0,0.000885,0,0
0:1:29.617,522.871,29.5854,0,0.000885,0,0
0:1:30.508,528.676,29.9164,0,0.000885,0,0
0:1:31.404,533.426,30.1852,0,0.000885,0,0
0:1:32.311,539.645,30.5369,0,0.000885,0,0
0:1:33.211,545.098,30.8471,0,0.000885,0,0
0:1:34.101,550.552,31.1574,0,0.000885,0,0
0:1:34.990,555.948,31.4608,0,0.000885,0,0
0:1:35.879,562.46,31.8262,0,0.000885,0,0
0:1:36.783,567.148,32.0951,0,0.000885,0,0
0:1:37.685,573.015,32.426,0,0.000885,0,0
0:1:38.572,578.06,32.7087,0,0.000885,0,0
0:1:39.464,583.749,33.0328,0,0.000885,0,0
0:1:40.355,589.558,33.3637,0,0.000885,0,0
0:1:41.249,594.429,33.6395,0,0.000885,0,0
0:1:42.162,600.652,33.9912,0,0.000885,0,0
0:1:43.062,606.933,34.3428,0,0.000885,0,0
0:1:43.960,611.746,34.6186,0,0.000885,0,0
0:1:44.853,617.204,34.9288,0,0.000885,0,0
0:1:45.748,622.546,35.2322,0,0.000885,0,0
0:1:46.648,628.182,35.5494,0,0.000885,0,0
0:1:47.557,633.992,35.8734,0,0.000885,0,0
0:1:48.457,639.921,36.2113,0,0.000885,0,0
0:1:49.352,645.028,36.5008,0,0.000885,0,0
0:1:50.244,650.428,36.8042,0,0.000885,0,0
0:1:51.139,656.064,37.1283,0,0.000885,0,0
0:1:52.049,661.344,37.4247,0,0.000885,0,0
0:1:52.955,667.393,37.7695,0,0.000885,0,0
0:1:53.848,672.38,38.0522,0,0.000885,0,0
0:1:54.741,678.131,38.3762,0,0.000885,0,0
0:1:55.639,684.412,38.7279,0,0.000885,0,0
0:1:56.544,689.11,38.9967,0,0.000885,0,0
0:1:57.450,694.981,39.3277,0,0.000885,0,0
0:1:58.343,700.791,39.6586,0,0.000885,0,0
0:1:59.239,705.782,39.9413,0,0.000885,0,0
0:2:0.136,711.591,40.2654,0,0.000885,0,0
0:2:1.029,716.818,40.5619,0,0.000885,0,0
0:2:1.939,722.863,40.9066,0,0.000885,0,0
0:2:2.840,728.966,41.2513,0,0.000885,0,0
0:2:3.735,734.072,41.5409,0,0.000885,0,0
0:2:4.631,739.299,41.8374,0,0.000885,0,0
0:2:5.520,745.638,42.1959,0,0.000885,0,0
0:2:6.432,750.215,42.451,0,0.000885,0,0
0:2:7.341,755.735,42.7682,0,0.000885,0,0
0:2:8.241,762.189,43.1336,0,0.000885,0,0
0:2:9.133,767.416,43.4301,0,0.000885,0,0
0:2:10.025,772.465,43.7128,0,0.000885,0,0
0:2:10.919,778.159,44.0368,0,0.000885,0,0
0:2:11.828,784.084,44.3678,0,0.000885,0,0
0:2:12.735,789.955,44.7056,0,0.000885,0,0
0:2:13.626,795.471,45.0159,0,0.000885,0,0
0:2:14.519,800.462,45.2986,0,0.000885,0,0
0:2:15.414,805.982,45.6088,0,0.000885,0,0
0:2:16.308,811.147,45.8984,0,0.000885,0,0
0:2:17.214,817.543,46.2638,0,0.000885,0,0
0:2:18.129,822.707,46.5534,0,0.000885,0,0
0:2:19.025,827.992,46.8568,0,0.000885,0,0
0:2:19.917,833.45,47.167,0,0.000885,0,0
0:2:20.808,840.26,47.5462,0,0.000885,0,0
0:2:21.718,844.664,47.8014,0,0.000885,0,0
0:2:22.626,850.473,48.1254,0,0.000885,0,0
0:2:23.519,856.518,48.4701,0,0.000885,0,0
0:2:24.433,861.567,48.7528,0,0.000885,0,0
0:2:25.322,867.203,49.0769,0,0.000885,0,0
0:2:26.221,873.248,49.4147,0,0.000885,0,0
0:2:27.134,878.181,49.6974,0,0.000885,0,0
0:2:28.034,883.933,50.0215,0,0.000885,0,0
0:2:28.926,889.275,50.3248,0,0.000885,0,0
0:2:29.818,895.498,50.6765,0,0.000885,0,0
0:2:30.726,900.72,50.9729,0,0.000885,0,0
0:2:31.631,906.121,51.2763,0,0.000885,0,0
0:2:32.538,911.521,51.5797,0,0.000885,0,0
0:2:33.431,917.628,51.9244,0,0.000885,0,0
0:2:34.328,923.437,52.2554,0,0.000885,0,0
0:2:35.232,928.366,52.5381,0,0.000885,0,0
0:2:36.124,934.18,52.8621,0,0.000885,0,0
0:2:37.035,940.283,53.2068,0,0.000885,0,0
0:2:37.936,945.51,53.5033,0,0.000885,0,0
0:2:38.831,950.91,53.8136,0,0.000885,0,0
0:2:39.727,955.603,54.0756,0,0.000885,0,0
0:2:40.617,961.59,54.4134,0,0.000885,0,0
0:2:41.520,967.871,54.772,0,0.000885,0,0
0:2:42.429,972.452,55.0271,0,0.000885,0,0
0:2:43.328,978.026,55.3442,0,0.000885,0,0
0:2:44.217,984.071,55.689,0,0.000885,0,0
0:2:45.109,988.946,55.9647,0,0.000885,0,0
0:2:46.004,994.814,56.2957,0,0.000885,0,0
0:2:46.907,1000.92,56.6404,0,0.000885,0,0
0:2:47.813,1006.56,56.9576,0,0.000885,0,0
0:2:48.729,1011.96,57.2679,0,0.000885,0,0
0:2:49.624,1017.59,57.585,0,0.000885,0,0
0:2:50.519,1022.64,57.8677,0,0.000885,0,0
0:2:51.420,1028.39,58.1918,0,0.000885,0,0
0:2:52.329,1034.26,58.5296,0,0.000885,0,0
0:2:53.236,1038.43,58.764,0,0.000885,0,0
0:2:54.133,1044.71,59.1156,0,0.000885,0,0
0:2:55.022,1051.11,59.4811,0,0.000885,0,0
0:2:55.914,1055.69,59.7431,0,0.000885,0,0
0:2:56.824,1061.5,60.0671,0,0.000885,0,0
0:2:57.734,1067.07,60.3843,0,0.000885,0,0
0:2:58.635,1072,60.6601,0,0.000885,0,0
0:2:59.525,1077.76,60.991,0,0.000885,0,0
0:3:0.432,1082.98,61.2875,0,0.000885,0,0
0:3:1.336,1087.56,61.5426,0,0.000885,0,0
0:3:2.245,1093.49,61.8804,0,0.000885,0,0
0:3:3.146,1099.07,62.1976,0,0.000885,0,0
0:3:4.042,1103.53,62.4458,0,0.000885,0,0
0:3:4.940,1108.75,62.7423,0,0.000885,0,0
0:3:5.831,1112.04,62.9284,0,0.000885,0,0
0:3:6.742,1115.27,63.1077,0,0.000885,0,0
0:3:7.644,1118.26,63.2801,0,0.000885,0,0
0:3:8.540,1120.14,63.3835,0,0.000885,0,0
0:3:9.432,1121.96,63.4869,0,0.000885,0,0
0:3:10.333,1124.72,63.6455,0,0.000885,0,0
0:3:11.233,1126.65,63.7558,0,0.000885,0,0
0:3:12.143,1128.47,63.8592,0,0.000885,0,0
0:3:13.042,1130.18,63.9558,0,0.000885,0,0
0:3:13.932,1132.05,64.0592,0,0.000885,0,0
0:3:14.836,1132.46,64.0868,0,0.000885,0,0
0:3:15.727,1133.05,64.1143,0,0.000885,0,0
0:3:16.626,1132.99,64.1143,0,0.000885,0,0
0:3:17.532,1132.7,64.1006,0,0.000885,0,0
0:3:18.425,1132.46,64.0868,0,0.000885,0,0
0:3:19.315,1132.88,64.1075,0,0.000885,0,0
0:3:20.204,1132.94,64.1143,0,0.000885,0,0
0:3:21.096,1131.7,64.0385,0,0.000885,0,0
0:3:22.001,1130.18,63.9558,0,0.000885,0,0
0:3:22.905,1127.24,63.7903,0,0.000885,0,0
0:3:23.794,1125.36,63.68,0,0.000885,0,0
0:3:24.685,1124.36,63.6248,0,0.000885,0,0
0:3:25.580,1124.01,63.6041,0,0.000885,0,0
0:3:26.482,1122.84,63.5421,0,0.000885,0,0
0:3:27.385,1122.54,63.5214,0,0.000885,0,0
0:3:28.278,1122.9,63.5421,0,0.000885,0,0
0:3:29.171,1123.66,63.5835,0,0.000885,0,0
0:3:30.060,1124.54,63.6386,0,0.000885,0,0
0:3:30.949,1124.25,63.6179,0,0.000885,0,0
0:3:31.856,1125.54,63.6938,0,0.000885,0,0
0:3:32.761,1125.42,63.6869,0,0.000885,0,0
0:3:33.650,1126.95,63.7696,0,0.000885,0,0
0:3:34.538,1119.79,63.3697,0,0.000885,0,0
0:3:35.430,1119.49,63.349,0,0.000885,0,0
0:3:36.333,1099.65,62.2252,0,0.000885,0,0
0:3:37.238,1032.97,58.4538,0,0.000885,0,0
0:3:38.135,868.787,49.1665,0,0.000885,0,0
0:3:38.446,824.233,46.643,0,0.000885,0,0