File: DataFile2021-07-17_045403.csv
Test ID:,Date Tested:,Time:,Test Type:,Diameter Avg. (mm):,Cyl. Corr. Factor:,Height (mm):,Age (days):,Weight (kN):,Break Type:,Ramp Rate (MPa/s):,Load at Break (kN):,Stress at Break (MPa):
12,7/17/2021,04:54,Cylinder,100,1,200,0,3.6,Invalid/No Break,0.23,15.31,1.95
Sample Time,Load (kN),Stress (MPa),Long. Strain,Trans. Strain,Chan1 Deflection (mm),Chan2 Deflection (mm)
0:0:12.795,5.04428,0.641212,0,0.000885,0,0
0:0:12.892,5.98286,0.758423,0,0.000885,0,0
0:0:12.991,6.33427,0.806687,0,0.000885,0,0
0:0:13.090,6.33427,0.806687,0,0.000885,0,0
0:0:13.192,6.57002,0.834266,0,0.000885,0,0
0:0:13.291,7.15719,0.910108,0,0.000885,0,0
0:0:13.388,7.15719,0.910108,0,0.000885,0,0
0:0:13.487,8.09576,1.02732,0,0.000885,0,0
0:0:13.587,8.32707,1.06179,0,0.000885,0,0
0:0:13.688,8.85641,1.13074,0,0.000885,0,0
0:0:13.789,8.85641,1.13074,0,0.000885,0,0
0:0:13.886,8.85641,1.13074,0,0.000885,0,0
0:0:13.984,8.67848,1.10316,0,0.000885,0,0
0:0:14.085,8.56283,1.08937,0,0.000885,0,0
0:0:14.186,8.56283,1.08937,0,0.000885,0,0
0:0:14.285,8.56283,1.08937,0,0.000885,0,0
0:0:14.382,8.85641,1.13074,0,0.000885,0,0
0:0:14.480,8.67848,1.10316,0,0.000885,0,0
0:0:14.580,8.67848,1.10316,0,0.000885,0,0
0:0:14.681,8.67848,1.10316,0,0.000885,0,0
0:0:14.781,8.97206,1.14453,0,0.000885,0,0
0:0:14.880,8.97206,1.14453,0,0.000885,0,0
0:0:14.977,8.97206,1.14453,0,0.000885,0,0
0:0:15.078,8.79858,1.11695,0,0.000885,0,0
0:0:15.179,8.97206,1.14453,0,0.000885,0,0
0:0:15.277,8.97206,1.14453,0,0.000885,0,0
0:0:15.375,9.5014,1.20658,0,0.000885,0,0
0:0:15.473,10.44,1.33069,0,0.000885,0,0
0:0:15.574,10.2042,1.29621,0,0.000885,0,0
0:0:15.675,10.2042,1.29621,0,0.000885,0,0
0:0:15.774,10.262,1.31,0,0.000885,0,0
0:0:15.873,10.7336,1.36516,0,0.000885,0,0
0:0:15.971,11.1428,1.42032,0,0.000885,0,0
0:0:16.071,11.1428,1.42032,0,0.000885,0,0
0:0:16.172,10.9693,1.39964,0,0.000885,0,0
0:0:16.272,11.9079,1.51685,0,0.000885,0,0
0:0:16.369,11.9079,1.51685,0,0.000885,0,0
0:0:16.467,11.3207,1.441,0,0.000885,0,0
0:0:16.567,11.9657,1.52374,0,0.000885,0,0
0:0:16.669,12.0814,1.53753,0,0.000885,0,0
0:0:16.768,12.0814,1.53753,0,0.000885,0,0
0:0:16.866,12.5529,1.59958,0,0.000885,0,0
0:0:16.964,12.9043,1.64095,0,0.000885,0,0
0:0:17.064,12.7264,1.62027,0,0.000885,0,0
0:0:17.165,12.7264,1.62027,0,0.000885,0,0
0:0:17.264,13.3135,1.69611,0,0.000885,0,0
0:0:17.363,14.0163,1.78574,0,0.000885,0,0
0:0:17.460,14.0163,1.78574,0,0.000885,0,0
0:0:17.560,14.0163,1.78574,0,0.000885,0,0
0:0:17.661,14.1943,1.80643,0,0.000885,0,0
0:0:17.762,14.0742,1.79264,0,0.000885,0,0
0:0:17.860,14.0742,1.79264,0,0.000885,0,0
0:0:17.958,14.0742,1.79264,0,0.000885,0,0
0:0:18.058,14.5457,1.85469,0,0.000885,0,0
0:0:18.159,15.0127,1.90985,0,0.000885,0,0
0:0:18.260,15.0127,1.90985,0,0.000885,0,0
0:0:18.361,15.3063,1.95122,0,0.000885,0,0
0:0:18.461,15.72,1.99948,0,0.000885,0,0
0:0:18.520,15.72,1.99948,0,0.000885,0,0