File: DataFile2021-07-17_063903.csv
Test ID:,Date Tested:,Time:,Test Type:,Diameter Avg. (mm):,Cyl. Corr. Factor:,Height (mm):,Age (days):,Weight (kN):,Break Type:,Ramp Rate (MPa/s):,Load at Break (kN):,Stress at Break (MPa):
12,7/17/2021,06:39,Cylinder,100,1,200,0,3.6,3,0.25,1320.6,168.14
Sample Time,Load (kN),Stress (MPa),Long. Strain,Trans. Strain,Chan1 Deflection (mm),Chan2 Deflection (mm)
0:0:8.443,5.51135,0.703265,0,0.000885,0,0
0:0:11.323,10.1464,1.28932,0,0.000885,0,0
0:0:14.208,16.4807,2.09601,0,0.000885,0,0
0:0:17.119,22.9306,2.91648,0,0.000885,0,0
0:0:20.023,27.6813,3.52322,0,0.000885,0,0
0:0:22.917,33.7842,4.30233,0,0.000885,0,0
0:0:25.828,39.9984,5.09523,0,0.000885,0,0
0:0:28.713,44.4555,5.6606,0,0.000885,0,0
0:0:31.624,50.7898,6.46728,0,0.000885,0,0
0:0:34.527,56.2478,7.16365,0,0.000885,0,0
0:0:37.424,61.937,7.8876,0,0.000885,0,0
0:0:40.331,68.0934,8.66671,0,0.000885,0,0
0:0:43.220,73.667,9.37687,0,0.000885,0,0
0:0:46.131,79.2362,10.087,0,0.000885,0,0
0:0:49.023,84.574,10.7696,0,0.000885,0,0
0:0:51.929,90.6147,11.5349,0,0.000885,0,0
0:0:54.832,96.2462,12.252,0,0.000885,0,0
0:0:57.724,101.758,12.9552,0,0.000885,0,0
0:1:0.638,107.447,13.6792,0,0.000885,0,0
0:1:3.521,112.785,14.3618,0,0.000885,0,0
0:1:6.436,119.413,15.2029,0,0.000885,0,0
0:1:9.330,124.457,15.8442,0,0.000885,0,0
0:1:12.230,130.791,16.6508,0,0.000885,0,0
0:1:15.137,136.129,17.3334,0,0.000885,0,0
0:1:18.030,141.698,18.0436,0,0.000885,0,0
0:1:20.970,148.032,18.8503,0,0.000885,0,0
0:1:23.871,152.903,19.4708,0,0.000885,0,0
0:1:26.782,159.117,20.2568,0,0.000885,0,0
0:1:29.680,164.575,20.9532,0,0.000885,0,0
0:1:32.579,170.144,21.6633,0,0.000885,0,0
0:1:35.491,176.537,22.4769,0,0.000885,0,0
0:1:38.367,181.932,23.1664,0,0.000885,0,0
0:1:41.283,186.919,23.8007,0,0.000885,0,0
0:1:44.180,193.369,24.6212,0,0.000885,0,0
0:1:47.057,198.707,25.2969,0,0.000885,0,0
0:1:49.962,204.396,26.0277,0,0.000885,0,0
0:1:52.832,210.027,26.7448,0,0.000885,0,0
0:1:55.722,215.832,27.4825,0,0.000885,0,0
0:1:58.587,221.29,28.172,0,0.000885,0,0
0:2:1.480,227.153,28.9235,0,0.000885,0,0
0:2:4.378,232.9,29.6544,0,0.000885,0,0
0:2:7.273,238.296,30.3438,0,0.000885,0,0
0:2:10.166,243.576,31.0126,0,0.000885,0,0
0:2:13.079,249.968,31.8262,0,0.000885,0,0
0:2:15.970,255.248,32.5019,0,0.000885,0,0
0:2:18.881,260.759,33.1983,0,0.000885,0,0
0:2:21.770,266.684,33.9567,0,0.000885,0,0
0:2:24.664,272.431,34.6875,0,0.000885,0,0
0:2:27.560,279.001,35.5218,0,0.000885,0,0
0:2:30.468,283.988,36.1561,0,0.000885,0,0
0:2:33.364,290.144,36.9421,0,0.000885,0,0
0:2:36.251,295.011,37.5626,0,0.000885,0,0
0:2:39.128,300.993,38.3211,0,0.000885,0,0
0:2:42.004,306.567,39.0312,0,0.000885,0,0
0:2:44.893,312.492,39.7896,0,0.000885,0,0
0:2:47.766,317.946,40.4791,0,0.000885,0,0
0:2:50.658,323.573,41.1962,0,0.000885,0,0
0:2:53.580,329.382,41.9408,0,0.000885,0,0
0:2:56.475,334.951,42.651,0,0.000885,0,0
0:2:59.375,341.285,43.4508,0,0.000885,0,0
0:3:2.249,346.392,44.1058,0,0.000885,0,0
0:3:5.136,352.139,44.8366,0,0.000885,0,0
0:3:8.002,357.944,45.5743,0,0.000885,0,0
0:3:10.889,363.282,46.2569,0,0.000885,0,0
0:3:13.763,369.029,46.9878,0,0.000885,0,0
0:3:16.651,375.83,47.8496,0,0.000885,0,0
0:3:19.538,379.998,48.3805,0,0.000885,0,0
0:3:22.403,385.861,49.132,0,0.000885,0,0
0:3:25.291,391.902,49.8974,0,0.000885,0,0
0:3:28.185,397.182,50.573,0,0.000885,0,0
0:3:31.073,402.871,51.297,0,0.000885,0,0
0:3:33.955,408.734,52.0416,0,0.000885,0,0
0:3:36.830,414.072,52.7242,0,0.000885,0,0
0:3:39.729,419.232,53.3792,0,0.000885,0,0
0:3:42.595,425.508,54.179,0,0.000885,0,0
0:3:45.484,431.139,54.8961,0,0.000885,0,0
0:3:48.349,436.362,55.558,0,0.000885,0,0
0:3:51.232,442.518,56.344,0,0.000885,0,0
0:3:54.109,447.62,56.9921,0,0.000885,0,0
0:3:56.982,454.364,57.8539,0,0.000885,0,0
0:3:59.871,459.759,58.5365,0,0.000885,0,0
0:4:2.772,465.391,59.2535,0,0.000885,0,0
0:4:5.671,470.435,59.8948,0,0.000885,0,0
0:4:8.594,477.241,60.7635,0,0.000885,0,0
0:4:11.481,482.165,61.3909,0,0.000885,0,0
0:4:14.397,488.263,62.17,0,0.000885,0,0
0:4:17.295,493.721,62.8595,0,0.000885,0,0
0:4:20.192,499.82,63.6386,0,0.000885,0,0
0:4:23.084,504.98,64.2936,0,0.000885,0,0
0:4:25.977,510.318,64.9762,0,0.000885,0,0
0:4:28.889,516.065,65.707,0,0.000885,0,0
0:4:31.777,521.99,66.4586,0,0.000885,0,0
0:4:34.678,527.559,67.1687,0,0.000885,0,0
0:4:37.543,533.542,67.934,0,0.000885,0,0
0:4:40.430,539.173,68.6511,0,0.000885,0,0
0:4:43.294,545.392,69.444,0,0.000885,0,0
0:4:46.184,549.849,70.0094,0,0.000885,0,0
0:4:49.089,556.357,70.8367,0,0.000885,0,0
0:4:51.986,561.93,71.5469,0,0.000885,0,0
0:4:54.884,567.971,72.3191,0,0.000885,0,0
0:4:57.751,573.718,73.05,0,0.000885,0,0
0:5:0.637,578.998,73.7187,0,0.000885,0,0
0:5:3.514,584.216,74.3875,0,0.000885,0,0
0:5:6.395,590.141,75.1391,0,0.000885,0,0
0:5:9.296,595.777,75.8561,0,0.000885,0,0
0:5:12.175,601.884,76.6352,0,0.000885,0,0
0:5:15.084,607.4,77.3385,0,0.000885,0,0
0:5:17.970,612.92,78.0418,0,0.000885,0,0
0:5:20.897,618.672,78.7726,0,0.000885,0,0
0:5:23.793,624.659,79.531,0,0.000885,0,0
0:5:26.681,630.295,80.2481,0,0.000885,0,0
0:5:29.611,635.633,80.9307,0,0.000885,0,0
0:5:32.495,641.269,81.6477,0,0.000885,0,0
0:5:35.396,646.963,82.3717,0,0.000885,0,0
0:5:38.277,652.599,83.0887,0,0.000885,0,0
0:5:41.172,657.469,83.7092,0,0.000885,0,0
0:5:44.066,663.692,84.5021,0,0.000885,0,0
0:5:46.950,669.386,85.2261,0,0.000885,0,0
0:5:49.853,675.609,86.019,0,0.000885,0,0
0:5:52.728,680.774,86.6809,0,0.000885,0,0
0:5:55.635,686.587,87.4186,0,0.000885,0,0
0:5:58.515,692.69,88.1977,0,0.000885,0,0
0:6:1.406,697.917,88.8596,0,0.000885,0,0
0:6:4.321,703.784,89.6112,0,0.000885,0,0
0:6:7.205,709.362,90.3213,0,0.000885,0,0
0:6:10.107,715.114,91.0522,0,0.000885,0,0
0:6:13.008,721.043,91.8037,0,0.000885,0,0
0:6:15.907,726.973,92.5621,0,0.000885,0,0
0:6:18.809,732.724,93.293,0,0.000885,0,0
0:6:21.706,738.004,93.9686,0,0.000885,0,0
0:6:24.615,743.818,94.7064,0,0.000885,0,0
0:6:27.508,749.628,95.4441,0,0.000885,0,0
0:6:30.406,755.321,96.1681,0,0.000885,0,0
0:6:33.307,760.428,96.8231,0,0.000885,0,0
0:6:36.210,766.242,97.5608,0,0.000885,0,0
0:6:39.121,772.287,98.333,0,0.000885,0,0
0:6:42.002,777.803,99.0363,0,0.000885,0,0
0:6:44.907,783.439,99.7533,0,0.000885,0,0
0:6:47.810,789.426,100.512,0,0.000885,0,0
0:6:50.715,794.768,101.194,0,0.000885,0,0
0:6:53.616,800.813,101.96,0,0.000885,0,0
0:6:56.504,805.862,102.608,0,0.000885,0,0
0:6:59.414,811.849,103.366,0,0.000885,0,0
0:7:2.306,818.072,104.159,0,0.000885,0,0
0:7:5.216,823.53,104.855,0,0.000885,0,0
0:7:8.111,829.051,105.559,0,0.000885,0,0
0:7:11.012,834.273,106.221,0,0.000885,0,0
0:7:13.915,840.496,107.014,0,0.000885,0,0
0:7:16.800,846.19,107.737,0,0.000885,0,0
0:7:19.725,851.941,108.475,0,0.000885,0,0
0:7:22.613,858.044,109.247,0,0.000885,0,0
0:7:25.519,863.155,109.902,0,0.000885,0,0
0:7:28.415,869.436,110.702,0,0.000885,0,0
0:7:31.310,874.48,111.343,0,0.000885,0,0
0:7:34.225,880.703,112.136,0,0.000885,0,0
0:7:37.104,886.339,112.853,0,0.000885,0,0
0:7:40.014,891.917,113.564,0,0.000885,0,0
0:7:42.913,897.549,114.281,0,0.000885,0,0
0:7:45.811,902.775,114.942,0,0.000885,0,0
0:7:48.724,908.469,115.666,0,0.000885,0,0
0:7:51.615,914.399,116.425,0,0.000885,0,0
0:7:54.527,920.208,117.163,0,0.000885,0,0
0:7:57.417,925.786,117.873,0,0.000885,0,0
0:8:0.323,931.947,118.659,0,0.000885,0,0
0:8:3.217,937.761,119.397,0,0.000885,0,0
0:8:6.110,942.925,120.058,0,0.000885,0,0
0:8:9.022,949.028,120.838,0,0.000885,0,0
0:8:11.915,954.019,121.472,0,0.000885,0,0
0:8:14.827,960.184,122.251,0,0.000885,0,0
0:8:17.717,965.113,122.885,0,0.000885,0,0
0:8:20.622,971.394,123.685,0,0.000885,0,0
0:8:23.525,976.678,124.354,0,0.000885,0,0
0:8:26.413,983.368,125.209,0,0.000885,0,0
0:8:29.331,988.301,125.836,0,0.000885,0,0
0:8:32.217,994.226,126.588,0,0.000885,0,0
0:8:35.131,1000.1,127.339,0,0.000885,0,0
0:8:38.014,1005.44,128.015,0,0.000885,0,0
0:8:40.918,1011.37,128.773,0,0.000885,0,0
0:8:43.834,1016.83,129.47,0,0.000885,0,0
0:8:46.723,1022.58,130.201,0,0.000885,0,0
0:8:49.632,1028.22,130.918,0,0.000885,0,0
0:8:52.505,1033.73,131.621,0,0.000885,0,0
0:8:55.419,1039.9,132.407,0,0.000885,0,0
0:8:58.329,1045.24,133.083,0,0.000885,0,0
0:9:1.218,1051.58,133.889,0,0.000885,0,0
0:9:4.131,1056.92,134.572,0,0.000885,0,0
0:9:7.022,1063.32,135.385,0,0.000885,0,0
0:9:9.929,1067.84,135.965,0,0.000885,0,0
0:9:12.821,1073.89,136.73,0,0.000885,0,0
0:9:15.720,1079.52,137.447,0,0.000885,0,0
0:9:18.632,1085.21,138.171,0,0.000885,0,0
0:9:21.518,1090.79,138.881,0,0.000885,0,0
0:9:24.420,1096.48,139.605,0,0.000885,0,0
0:9:27.327,1102.59,140.384,0,0.000885,0,0
0:9:30.226,1108.51,141.143,0,0.000885,0,0
0:9:33.128,1114.21,141.867,0,0.000885,0,0
0:9:36.030,1119.43,142.528,0,0.000885,0,0
0:9:38.931,1125.19,143.266,0,0.000885,0,0
0:9:41.816,1131.17,144.025,0,0.000885,0,0
0:9:44.718,1136.46,144.7,0,0.000885,0,0
0:9:47.626,1142.56,145.472,0,0.000885,0,0
0:9:50.526,1148.02,146.169,0,0.000885,0,0
0:9:53.435,1153.71,146.893,0,0.000885,0,0
0:9:56.323,1159.17,147.589,0,0.000885,0,0
0:9:59.241,1164.98,148.334,0,0.000885,0,0
0:10:2.130,1170.91,149.085,0,0.000885,0,0
0:10:5.039,1176.37,149.782,0,0.000885,0,0
0:10:7.920,1182.12,150.513,0,0.000885,0,0
0:10:10.824,1187.64,151.216,0,0.000885,0,0
0:10:13.736,1193.51,151.96,0,0.000885,0,0
0:10:16.626,1199.09,152.671,0,0.000885,0,0
0:10:19.542,1204.84,153.408,0,0.000885,0,0
0:10:22.428,1211.24,154.222,0,0.000885,0,0
0:10:25.332,1216.23,154.856,0,0.000885,0,0
0:10:28.238,1222.39,155.642,0,0.000885,0,0
0:10:31.127,1228.02,156.359,0,0.000885,0,0
0:10:34.035,1233.55,157.063,0,0.000885,0,0
0:10:36.922,1239,157.752,0,0.000885,0,0
0:10:39.836,1244.75,158.49,0,0.000885,0,0
0:10:42.736,1250.74,159.248,0,0.000885,0,0
0:10:45.636,1255.44,159.848,0,0.000885,0,0
0:10:48.538,1262.07,160.689,0,0.000885,0,0
0:10:51.429,1267.94,161.441,0,0.000885,0,0
0:10:54.336,1273.34,162.13,0,0.000885,0,0
0:10:57.222,1278.63,162.799,0,0.000885,0,0
0:11:0.147,1284.85,163.592,0,0.000885,0,0
0:11:3.031,1290.37,164.295,0,0.000885,0,0
0:11:5.936,1296.18,165.033,0,0.000885,0,0
0:11:8.849,1302.22,165.805,0,0.000885,0,0
0:11:11.730,1307.27,166.446,0,0.000885,0,0
0:11:14.635,1313.2,167.205,0,0.000885,0,0
0:11:17.537,1318.78,167.915,0,0.000885,0,0
0:11:18.468,1320.83,168.17,0,0.000885,0,0