File: DataFile2021-06-24_060132.csv
Test ID:,Date Tested:,Time:,Test Type:,Diameter Avg. (mm):,Cyl. Corr. Factor:,Height (mm):,Age (days):,Weight (kN):,Break Type:,Ramp Rate (MPa/s):,Load at Break (kN):,Stress at Break (MPa):
12,6/24/2021,06:01,Cylinder,150,1,300,0,3.6,3,0.21,608.34,34.43
Sample Time,Load (kN),Stress (MPa),Long. Strain,Trans. Strain,Chan1 Deflection (mm),Chan2 Deflection (mm)
0:0:19.581,7.86001,0.448159,0,0.000885,0,0
0:0:20.274,19.7634,1.11695,0,0.000885,0,0
0:0:20.988,18.4735,1.048,0,0.000885,0,0
0:0:21.684,18.1799,1.02732,0,0.000885,0,0
0:0:22.388,17.8863,1.01353,0,0.000885,0,0
0:0:23.088,19.2386,1.08937,0,0.000885,0,0
0:0:23.786,21.7607,1.23416,0,0.000885,0,0
0:0:24.478,25.9821,1.46858,0,0.000885,0,0
0:0:25.186,30.3235,1.71679,0,0.000885,0,0
0:0:25.894,33.9577,1.92364,0,0.000885,0,0
0:0:26.594,37.1827,2.1029,0,0.000885,0,0
0:0:27.292,39.2956,2.22701,0,0.000885,0,0
0:0:27.990,41.9334,2.3718,0,0.000885,0,0
0:0:28.682,45.572,2.57864,0,0.000885,0,0
0:0:29.382,48.152,2.72343,0,0.000885,0,0
0:0:30.078,51.5549,2.91648,0,0.000885,0,0
0:0:30.790,55.1313,3.11643,0,0.000885,0,0
0:0:31.497,58.5341,3.30948,0,0.000885,0,0
0:0:32.191,61.1141,3.46117,0,0.000885,0,0
0:0:32.888,64.2234,3.63354,0,0.000885,0,0
0:0:33.588,67.4484,3.8197,0,0.000885,0,0
0:0:34.277,70.3798,3.98517,0,0.000885,0,0
0:0:34.976,73.3734,4.15064,0,0.000885,0,0
0:0:35.689,76.6562,4.3368,0,0.000885,0,0
0:0:36.394,80.0013,4.52986,0,0.000885,0,0
0:0:37.094,82.1675,4.64707,0,0.000885,0,0
0:0:37.791,85.6283,4.84701,0,0.000885,0,0
0:0:38.484,88.5641,5.01249,0,0.000885,0,0
0:0:39.193,91.669,5.18486,0,0.000885,0,0
0:0:39.891,95.1919,5.38481,0,0.000885,0,0
0:0:40.600,97.8876,5.53649,0,0.000885,0,0
0:0:41.306,101.348,5.73644,0,0.000885,0,0
0:0:42.002,104.925,5.93639,0,0.000885,0,0
0:0:42.697,107.447,6.08118,0,0.000885,0,0
0:0:43.397,110.378,6.24665,0,0.000885,0,0
0:0:44.091,113.194,6.40523,0,0.000885,0,0
0:0:44.788,116.423,6.59139,0,0.000885,0,0
0:0:45.498,120.058,6.79134,0,0.000885,0,0
0:0:46.204,123.225,6.9706,0,0.000885,0,0
0:0:46.904,126.04,7.12918,0,0.000885,0,0
0:0:47.600,129.15,7.30844,0,0.000885,0,0
0:0:48.296,131.965,7.46702,0,0.000885,0,0
0:0:48.994,135.133,7.64629,0,0.000885,0,0
0:0:49.690,138.531,7.83934,0,0.000885,0,0
0:0:50.394,141.405,8.00481,0,0.000885,0,0
0:0:51.103,144.634,8.18408,0,0.000885,0,0
0:0:51.802,147.565,8.34955,0,0.000885,0,0
0:0:52.500,150.555,8.52192,0,0.000885,0,0
0:0:53.199,154.251,8.72876,0,0.000885,0,0
0:0:53.893,156.947,8.88045,0,0.000885,0,0
0:0:54.591,159.589,9.03213,0,0.000885,0,0
0:0:55.290,162.814,9.2114,0,0.000885,0,0
0:0:56.002,165.981,9.39066,0,0.000885,0,0
0:0:56.708,169.148,9.56992,0,0.000885,0,0
0:0:57.403,172.845,9.78366,0,0.000885,0,0
0:0:58.099,175.892,9.95603,0,0.000885,0,0
0:0:58.798,178.885,10.1215,0,0.000885,0,0
0:0:59.492,181.701,10.2801,0,0.000885,0,0
0:1:0.198,184.223,10.4249,0,0.000885,0,0
0:1:0.906,188.444,10.6662,0,0.000885,0,0
0:1:1.607,191.376,10.8317,0,0.000885,0,0
0:1:2.302,194.014,10.9765,0,0.000885,0,0
0:1:2.994,197.065,11.1488,0,0.000885,0,0
0:1:3.680,199.996,11.3143,0,0.000885,0,0
0:1:4.375,203.457,11.5142,0,0.000885,0,0
0:1:5.069,205.922,11.6521,0,0.000885,0,0
0:1:5.776,209.618,11.859,0,0.000885,0,0
0:1:6.477,212.901,12.0451,0,0.000885,0,0
0:1:7.176,215.774,12.2106,0,0.000885,0,0
0:1:7.888,218.768,12.383,0,0.000885,0,0
0:1:8.593,221.584,12.5416,0,0.000885,0,0
0:1:9.279,224.515,12.707,0,0.000885,0,0
0:1:9.982,227.798,12.8932,0,0.000885,0,0
0:1:10.689,231.023,13.0725,0,0.000885,0,0
0:1:11.392,233.839,13.231,0,0.000885,0,0
0:1:12.087,237.184,13.4241,0,0.000885,0,0
0:1:12.789,240.524,13.6103,0,0.000885,0,0
0:1:13.487,243.754,13.7964,0,0.000885,0,0
0:1:14.180,246.685,13.9619,0,0.000885,0,0
0:1:14.881,250.026,14.148,0,0.000885,0,0
0:1:15.590,252.899,14.3135,0,0.000885,0,0
0:1:16.291,255.599,14.4652,0,0.000885,0,0
0:1:16.990,258.651,14.6376,0,0.000885,0,0
0:1:17.692,262.049,14.8306,0,0.000885,0,0
0:1:18.396,264.807,14.9823,0,0.000885,0,0
0:1:19.094,268.504,15.196,0,0.000885,0,0
0:1:19.784,271.377,15.3546,0,0.000885,0,0
0:1:20.491,274.424,15.527,0,0.000885,0,0
0:1:21.192,277.654,15.7132,0,0.000885,0,0
0:1:21.888,280.407,15.8648,0,0.000885,0,0
0:1:22.589,283.752,16.0579,0,0.000885,0,0
0:1:23.290,286.741,16.2234,0,0.000885,0,0
0:1:23.992,289.557,16.3888,0,0.000885,0,0
0:1:24.692,292.431,16.5474,0,0.000885,0,0
0:1:25.394,296.069,16.7543,0,0.000885,0,0
0:1:26.093,299.53,16.9473,0,0.000885,0,0
0:1:26.789,302.341,17.1059,0,0.000885,0,0
0:1:27.492,305.864,17.3058,0,0.000885,0,0
0:1:28.193,308.151,17.4368,0,0.000885,0,0
0:1:28.891,311.198,17.6092,0,0.000885,0,0
0:1:29.596,314.952,17.8229,0,0.000885,0,0
0:1:30.290,317.71,17.9815,0,0.000885,0,0
0:1:30.994,320.29,18.1263,0,0.000885,0,0
0:1:31.695,323.75,18.3194,0,0.000885,0,0
0:1:32.393,327.153,18.5124,0,0.000885,0,0
0:1:33.086,329.733,18.6572,0,0.000885,0,0
0:1:33.788,333.252,18.8572,0,0.000885,0,0
0:1:34.488,336.068,19.0157,0,0.000885,0,0
0:1:35.181,338.941,19.1812,0,0.000885,0,0
0:1:35.884,342.05,19.3536,0,0.000885,0,0
0:1:36.585,345.04,19.526,0,0.000885,0,0
0:1:37.278,348.443,19.719,0,0.000885,0,0
0:1:37.996,351.903,19.9121,0,0.000885,0,0
0:1:38.691,355.306,20.1051,0,0.000885,0,0
0:1:39.379,357.886,20.2499,0,0.000885,0,0
0:1:40.091,360.408,20.3947,0,0.000885,0,0
0:1:40.793,363.633,20.5809,0,0.000885,0,0
0:1:41.490,367.503,20.7946,0,0.000885,0,0
0:1:42.192,370.906,20.9876,0,0.000885,0,0
0:1:42.894,373.37,21.1255,0,0.000885,0,0
0:1:43.581,376.008,21.2772,0,0.000885,0,0
0:1:44.284,378.94,21.4427,0,0.000885,0,0
0:1:44.979,382.107,21.622,0,0.000885,0,0
0:1:45.681,385.745,21.8288,0,0.000885,0,0
0:1:46.382,389.264,22.0287,0,0.000885,0,0
0:1:47.092,392.08,22.1873,0,0.000885,0,0
0:1:47.782,394.953,22.3528,0,0.000885,0,0
0:1:48.474,397.769,22.5114,0,0.000885,0,0
0:1:49.173,400.522,22.6631,0,0.000885,0,0
0:1:49.879,404.397,22.8837,0,0.000885,0,0
0:1:50.580,407.564,23.063,0,0.000885,0,0
0:1:51.281,410.789,23.2491,0,0.000885,0,0
0:1:51.984,413.369,23.3939,0,0.000885,0,0
0:1:52.682,416.42,23.5663,0,0.000885,0,0
0:1:53.379,419.174,23.718,0,0.000885,0,0
0:1:54.079,423.222,23.9524,0,0.000885,0,0
0:1:54.788,425.566,24.0834,0,0.000885,0,0
0:1:55.496,428.795,24.2627,0,0.000885,0,0
0:1:56.194,431.491,24.4143,0,0.000885,0,0
0:1:56.886,434.894,24.6074,0,0.000885,0,0
0:1:57.592,438.59,24.8211,0,0.000885,0,0
0:1:58.298,441.637,24.9935,0,0.000885,0,0
0:1:58.993,444.395,25.1452,0,0.000885,0,0
0:1:59.694,447.736,25.3382,0,0.000885,0,0
0:2:0.393,450.787,25.5106,0,0.000885,0,0
0:2:1.096,453.661,25.6692,0,0.000885,0,0
0:2:1.793,456.948,25.8553,0,0.000885,0,0
0:2:2.493,459.822,26.0208,0,0.000885,0,0
0:2:3.187,462.989,26.2001,0,0.000885,0,0
0:2:3.886,465.978,26.3656,0,0.000885,0,0
0:2:4.585,468.972,26.5379,0,0.000885,0,0
0:2:5.293,472.784,26.7517,0,0.000885,0,0
0:2:5.993,475.715,26.9171,0,0.000885,0,0
0:2:6.687,478.059,27.055,0,0.000885,0,0
0:2:7.382,481.347,27.2412,0,0.000885,0,0
0:2:8.080,484.394,27.4136,0,0.000885,0,0
0:2:8.783,487.561,27.5928,0,0.000885,0,0
0:2:9.476,490.612,27.7652,0,0.000885,0,0
0:2:10.176,494.073,27.9582,0,0.000885,0,0
0:2:10.879,496.946,28.1237,0,0.000885,0,0
0:2:11.586,500.349,28.3168,0,0.000885,0,0
0:2:12.279,503.161,28.4753,0,0.000885,0,0
0:2:12.994,506.039,28.6339,0,0.000885,0,0
0:2:13.693,509.615,28.8408,0,0.000885,0,0
0:2:14.384,512.253,28.9856,0,0.000885,0,0
0:2:15.079,515.42,29.1648,0,0.000885,0,0
0:2:15.784,518.587,29.3441,0,0.000885,0,0
0:2:16.484,521.581,29.5165,0,0.000885,0,0
0:2:17.184,524.686,29.6888,0,0.000885,0,0
0:2:17.874,527.973,29.875,0,0.000885,0,0
0:2:18.579,531.082,30.0542,0,0.000885,0,0
0:2:19.298,534.071,30.2197,0,0.000885,0,0
0:2:19.993,536.593,30.3645,0,0.000885,0,0
0:2:20.698,539.703,30.5438,0,0.000885,0,0
0:2:21.400,543.337,30.7437,0,0.000885,0,0
0:2:22.096,546.798,30.9437,0,0.000885,0,0
0:2:22.795,549.556,31.0954,0,0.000885,0,0
0:2:23.497,552.665,31.2746,0,0.000885,0,0
0:2:24.191,555.538,31.4401,0,0.000885,0,0
0:2:24.899,558.528,31.6056,0,0.000885,0,0
0:2:25.603,561.579,31.7779,0,0.000885,0,0
0:2:26.304,564.982,31.971,0,0.000885,0,0
0:2:26.998,567.62,32.1227,0,0.000885,0,0
0:2:27.691,570.845,32.3019,0,0.000885,0,0
0:2:28.381,573.896,32.4743,0,0.000885,0,0
0:2:29.091,577.415,32.6743,0,0.000885,0,0
0:2:29.785,580.23,32.8328,0,0.000885,0,0
0:2:30.490,583.398,33.0121,0,0.000885,0,0
0:2:31.191,586.213,33.1707,0,0.000885,0,0
0:2:31.887,589.029,33.3293,0,0.000885,0,0
0:2:32.599,591.787,33.4878,0,0.000885,0,0
0:2:33.297,595.426,33.6947,0,0.000885,0,0
0:2:33.992,598.183,33.8533,0,0.000885,0,0
0:2:34.696,600.59,33.9843,0,0.000885,0,0
0:2:35.404,603.29,34.1359,0,0.000885,0,0
0:2:36.109,605.874,34.2876,0,0.000885,0,0
0:2:36.808,607.987,34.4048,0,0.000885,0,0
0:2:37.504,608.397,34.4255,0,0.000885,0,0
0:2:38.195,606.755,34.3359,0,0.000885,0,0
0:2:38.885,606.755,34.3359,0,0.000885,0,0
0:2:39.591,602.881,34.1153,0,0.000885,0,0
0:2:40.300,599.887,33.9498,0,0.000885,0,0
0:2:41.005,592.254,33.5154,0,0.000885,0,0
0:2:41.703,586.093,33.1638,0,0.000885,0,0
0:2:42.388,580.64,32.8604,0,0.000885,0,0
0:2:43.089,573.718,32.4674,0,0.000885,0,0
0:2:43.789,569.319,32.2192,0,0.000885,0,0
0:2:44.486,567.793,32.1296,0,0.000885,0,0
0:2:45.188,566.797,32.0744,0,0.000885,0,0
0:2:45.890,562.282,31.8193,0,0.000885,0,0
0:2:46.591,562.518,31.8331,0,0.000885,0,0
0:2:47.282,557.825,31.5642,0,0.000885,0,0
0:2:47.971,556.886,31.5159,0,0.000885,0,0
0:2:48.660,507.796,28.7373,0,0.000885,0,0
0:2:48.977,427.857,24.2144,0,0.000885,0,0