File: DataFile2021-06-08_074152.csv
Test ID:,Date Tested:,Time:,Test Type:,Diameter Avg. (mm):,Cyl. Corr. Factor:,Height (mm):,Age (days):,Weight (kN):,Break Type:,Ramp Rate (MPa/s):,Load at Break (kN):,Stress at Break (MPa):
12,6/8/2021,07:41,Cylinder,100,1,200,0,3.6,3,0.24,532.43,67.79
Sample Time,Load (kN),Stress (MPa),Long. Strain,Trans. Strain,Chan1 Deflection (mm),Chan2 Deflection (mm)
0:0:14.192,6.21861,0.792897,0,0.000885,0,0
0:0:15.381,12.7264,1.62027,0,0.000885,0,0
0:0:16.574,11.6143,1.47548,0,0.000885,0,0
0:0:17.764,12.1392,1.54443,0,0.000885,0,0
0:0:18.948,13.1356,1.67543,0,0.000885,0,0
0:0:20.154,15.8357,2.01327,0,0.000885,0,0
0:0:21.366,19.0606,2.42695,0,0.000885,0,0
0:0:22.558,22.0543,2.80617,0,0.000885,0,0
0:0:23.751,24.1049,3.06817,0,0.000885,0,0
0:0:24.957,26.5114,3.37843,0,0.000885,0,0
0:0:26.162,28.3886,3.61285,0,0.000885,0,0
0:0:27.357,30.9685,3.9438,0,0.000885,0,0
0:0:28.552,33.8421,4.30922,0,0.000885,0,0
0:0:29.759,35.7192,4.55054,0,0.000885,0,0
0:0:30.972,37.89,4.82633,0,0.000885,0,0
0:0:32.170,40.5277,5.15728,0,0.000885,0,0
0:0:33.360,42.6985,5.43307,0,0.000885,0,0
0:0:34.554,45.6299,5.81228,0,0.000885,0,0
0:0:35.768,47.6849,6.07428,0,0.000885,0,0
0:0:36.963,49.9713,6.36386,0,0.000885,0,0
0:0:38.159,52.4356,6.67413,0,0.000885,0,0
0:0:39.355,54.722,6.9706,0,0.000885,0,0
0:0:40.567,56.4791,7.19123,0,0.000885,0,0
0:0:41.767,59.8241,7.61871,0,0.000885,0,0
0:0:42.961,61.4077,7.81865,0,0.000885,0,0
0:0:44.150,63.6363,8.10134,0,0.000885,0,0
0:0:45.372,66.2741,8.43918,0,0.000885,0,0
0:0:46.574,68.6805,8.74255,0,0.000885,0,0
0:0:47.768,70.8513,9.01834,0,0.000885,0,0
0:0:48.964,73.8983,9.41134,0,0.000885,0,0
0:0:50.171,75.9534,9.67334,0,0.000885,0,0
0:0:51.374,78.3554,9.97671,0,0.000885,0,0
0:0:52.570,80.5262,10.2525,0,0.000885,0,0
0:0:53.765,83.0483,10.5766,0,0.000885,0,0
0:0:54.963,84.9254,10.811,0,0.000885,0,0
0:0:56.175,87.6833,11.1626,0,0.000885,0,0
0:0:57.373,89.734,11.4246,0,0.000885,0,0
0:0:58.564,92.0248,11.7142,0,0.000885,0,0
0:0:59.767,94.4847,12.0314,0,0.000885,0,0
0:1:0.979,96.8333,12.3278,0,0.000885,0,0
0:1:2.170,99.8225,12.707,0,0.000885,0,0
0:1:3.363,101.815,12.9621,0,0.000885,0,0
0:1:4.561,104.044,13.2448,0,0.000885,0,0
0:1:5.773,106.45,13.5551,0,0.000885,0,0
0:1:6.972,108.385,13.8033,0,0.000885,0,0
0:1:8.165,111.085,14.1411,0,0.000885,0,0
0:1:9.358,113.901,14.4997,0,0.000885,0,0
0:1:10.573,115.952,14.7617,0,0.000885,0,0
0:1:11.771,118.238,15.0513,0,0.000885,0,0
0:1:12.965,120.587,15.3546,0,0.000885,0,0
0:1:14.161,122.58,15.6097,0,0.000885,0,0
0:1:15.368,125.511,15.982,0,0.000885,0,0
0:1:16.574,128.153,16.3199,0,0.000885,0,0
0:1:17.767,129.91,16.5405,0,0.000885,0,0
0:1:18.959,132.49,16.8715,0,0.000885,0,0
0:1:20.167,134.777,17.1611,0,0.000885,0,0
0:1:21.373,137.068,17.4506,0,0.000885,0,0
0:1:22.566,139.412,17.7471,0,0.000885,0,0
0:1:23.762,140.937,17.9471,0,0.000885,0,0
0:1:24.959,143.869,18.3194,0,0.000885,0,0
0:1:26.170,146.511,18.6572,0,0.000885,0,0
0:1:27.366,148.62,18.9261,0,0.000885,0,0
0:1:28.555,150.906,19.2157,0,0.000885,0,0
0:1:29.764,153.779,19.5811,0,0.000885,0,0
0:1:30.972,155.95,19.8569,0,0.000885,0,0
0:1:32.164,157.885,20.1051,0,0.000885,0,0
0:1:33.361,160.879,20.4843,0,0.000885,0,0
0:1:34.566,162.992,20.7532,0,0.000885,0,0
0:1:35.780,165.514,21.0704,0,0.000885,0,0
0:1:36.974,167.035,21.2703,0,0.000885,0,0
0:1:38.168,169.971,21.6426,0,0.000885,0,0
0:1:39.359,172.551,21.9667,0,0.000885,0,0
0:1:40.571,174.953,22.277,0,0.000885,0,0
0:1:41.773,177.244,22.5665,0,0.000885,0,0
0:1:42.963,178.943,22.7803,0,0.000885,0,0
0:1:44.161,181.465,23.1043,0,0.000885,0,0
0:1:45.367,184.223,23.456,0,0.000885,0,0
0:1:46.570,186.625,23.7593,0,0.000885,0,0
0:1:47.765,188.618,24.0144,0,0.000885,0,0
0:1:48.959,191.669,24.4074,0,0.000885,0,0
0:1:50.164,193.547,24.6419,0,0.000885,0,0
0:1:51.355,195.539,24.897,0,0.000885,0,0
0:1:52.562,197.888,25.1934,0,0.000885,0,0
0:1:53.763,200.174,25.4899,0,0.000885,0,0
0:1:54.958,202.87,25.8278,0,0.000885,0,0
0:1:56.162,205.454,26.1587,0,0.000885,0,0
0:1:57.365,207.505,26.4207,0,0.000885,0,0
0:1:58.563,210.027,26.7448,0,0.000885,0,0
0:1:59.759,211.904,26.9792,0,0.000885,0,0
0:2:0.963,214.72,27.3377,0,0.000885,0,0
0:2:2.161,217.184,27.6549,0,0.000885,0,0
0:2:3.358,219.177,27.9031,0,0.000885,0,0
0:2:4.568,221.642,28.2202,0,0.000885,0,0
0:2:5.773,224.164,28.5443,0,0.000885,0,0
0:2:6.961,226.859,28.8821,0,0.000885,0,0
0:2:8.162,228.852,29.1372,0,0.000885,0,0
0:2:9.360,231.437,29.4682,0,0.000885,0,0
0:2:10.565,233.545,29.7371,0,0.000885,0,0
0:2:11.765,235.951,30.0405,0,0.000885,0,0
0:2:12.963,238.354,30.3507,0,0.000885,0,0
0:2:14.166,241.232,30.7161,0,0.000885,0,0
0:2:15.368,242.521,30.8816,0,0.000885,0,0
0:2:16.562,245.626,31.2746,0,0.000885,0,0
0:2:17.763,247.797,31.5504,0,0.000885,0,0
0:2:18.962,249.968,31.8262,0,0.000885,0,0
0:2:20.163,252.668,32.1709,0,0.000885,0,0
0:2:21.359,254.603,32.4191,0,0.000885,0,0
0:2:22.568,257.125,32.7363,0,0.000885,0,0
0:2:23.763,259.585,33.0535,0,0.000885,0,0
0:2:24.968,262.285,33.3982,0,0.000885,0,0
0:2:26.169,264.456,33.674,0,0.000885,0,0
0:2:27.362,266.569,33.9429,0,0.000885,0,0
0:2:28.567,268.855,34.2325,0,0.000885,0,0
0:2:29.766,271.026,34.5083,0,0.000885,0,0
0:2:30.970,273.663,34.8461,0,0.000885,0,0
0:2:32.161,275.656,35.1012,0,0.000885,0,0
0:2:33.366,278.299,35.4322,0,0.000885,0,0
0:2:34.568,280.758,35.7493,0,0.000885,0,0
0:2:35.771,283.338,36.0734,0,0.000885,0,0
0:2:36.965,285.216,36.3147,0,0.000885,0,0
0:2:38.169,288.089,36.6801,0,0.000885,0,0
0:2:39.366,289.851,36.9076,0,0.000885,0,0
0:2:40.571,292.724,37.2731,0,0.000885,0,0
0:2:41.768,294.837,37.542,0,0.000885,0,0
0:2:42.965,297.123,37.8315,0,0.000885,0,0
0:2:44.150,299.646,38.1487,0,0.000885,0,0
0:2:45.349,301.523,38.39,0,0.000885,0,0
0:2:46.568,303.925,38.7003,0,0.000885,0,0
0:2:47.764,305.98,38.9554,0,0.000885,0,0
0:2:48.965,308.796,39.3139,0,0.000885,0,0
0:2:50.171,311.433,39.6517,0,0.000885,0,0
0:2:51.372,313.368,39.9,0,0.000885,0,0
0:2:52.551,315.423,40.162,0,0.000885,0,0
0:2:53.769,317.358,40.4102,0,0.000885,0,0
0:2:54.969,319.938,40.7342,0,0.000885,0,0
0:2:56.159,322.518,41.0652,0,0.000885,0,0
0:2:57.366,323.457,41.1824,0,0.000885,0,0
0:2:58.564,325.743,41.472,0,0.000885,0,0
0:2:59.772,330.263,42.0511,0,0.000885,0,0
0:3:0.974,333.074,42.4097,0,0.000885,0,0
0:3:2.163,336.419,42.8371,0,0.000885,0,0
0:3:3.363,339.057,43.1681,0,0.000885,0,0
0:3:4.569,341.579,43.4921,0,0.000885,0,0
0:3:5.774,342.989,43.6714,0,0.000885,0,0
0:3:6.962,344.746,43.892,0,0.000885,0,0
0:3:8.158,346.859,44.1609,0,0.000885,0,0
0:3:9.368,349.559,44.5057,0,0.000885,0,0
0:3:10.571,351.668,44.7746,0,0.000885,0,0
0:3:11.769,353.487,45.009,0,0.000885,0,0
0:3:12.965,355.831,45.3055,0,0.000885,0,0
0:3:14.156,358.238,45.6088,0,0.000885,0,0
0:3:15.365,360.76,45.9329,0,0.000885,0,0
0:3:16.556,363.282,46.2569,0,0.000885,0,0
0:3:17.771,365.568,46.5465,0,0.000885,0,0
0:3:18.958,367.681,46.8154,0,0.000885,0,0
0:3:20.169,370.497,47.1739,0,0.000885,0,0
0:3:21.364,372.841,47.4704,0,0.000885,0,0
0:3:22.558,375.185,47.7669,0,0.000885,0,0
0:3:23.767,377.65,48.084,0,0.000885,0,0
0:3:24.966,379.705,48.346,0,0.000885,0,0
0:3:26.170,382.636,48.7184,0,0.000885,0,0
0:3:27.366,384.22,48.9183,0,0.000885,0,0
0:3:28.569,386.742,49.2424,0,0.000885,0,0
0:3:29.767,388.855,49.5113,0,0.000885,0,0
0:3:30.965,391.844,49.8905,0,0.000885,0,0
0:3:32.166,393.899,50.1525,0,0.000885,0,0
0:3:33.363,396.359,50.4627,0,0.000885,0,0
0:3:34.570,398.53,50.7454,0,0.000885,0,0
0:3:35.774,400.407,50.9798,0,0.000885,0,0
0:3:36.962,402.987,51.3108,0,0.000885,0,0
0:3:38.169,405.802,51.6693,0,0.000885,0,0
0:3:39.360,407.973,51.9451,0,0.000885,0,0
0:3:40.567,410.259,52.2347,0,0.000885,0,0
0:3:41.768,412.488,52.5174,0,0.000885,0,0
0:3:42.972,414.895,52.8276,0,0.000885,0,0
0:3:44.169,417.359,53.1379,0,0.000885,0,0
0:3:45.367,419.467,53.4068,0,0.000885,0,0
0:3:46.572,422.167,53.7515,0,0.000885,0,0
0:3:47.771,424.102,53.9997,0,0.000885,0,0
0:3:48.951,426.86,54.3514,0,0.000885,0,0
0:3:50.157,429.556,54.6961,0,0.000885,0,0
0:3:51.371,431.962,54.9995,0,0.000885,0,0
0:3:52.574,433.897,55.2477,0,0.000885,0,0
0:3:53.771,436.299,55.5511,0,0.000885,0,0
0:3:54.979,438.354,55.8131,0,0.000885,0,0
0:3:56.175,440.756,56.1164,0,0.000885,0,0
0:3:57.361,443.514,56.4681,0,0.000885,0,0
0:3:58.560,445.801,56.7645,0,0.000885,0,0
0:3:59.770,448.092,57.0541,0,0.000885,0,0
0:4:0.973,450.436,57.3506,0,0.000885,0,0
0:4:2.174,452.549,57.6195,0,0.000885,0,0
0:4:3.372,455.129,57.9504,0,0.000885,0,0
0:4:4.571,457.415,58.24,0,0.000885,0,0
0:4:5.777,459.937,58.5641,0,0.000885,0,0
0:4:6.975,461.872,58.8054,0,0.000885,0,0
0:4:8.170,464.51,59.1432,0,0.000885,0,0
0:4:9.373,466.859,59.4397,0,0.000885,0,0
0:4:10.576,469.203,59.7431,0,0.000885,0,0
0:4:11.774,471.374,60.0189,0,0.000885,0,0
0:4:12.970,473.954,60.3429,0,0.000885,0,0
0:4:14.165,476.534,60.6739,0,0.000885,0,0
0:4:15.384,478.411,60.9152,0,0.000885,0,0
0:4:16.579,480.933,61.2323,0,0.000885,0,0
0:4:17.765,483.513,61.5633,0,0.000885,0,0
0:4:18.971,485.684,61.8391,0,0.000885,0,0
0:4:20.179,488.09,62.1424,0,0.000885,0,0
0:4:21.374,490.786,62.4872,0,0.000885,0,0
0:4:22.577,493.134,62.7906,0,0.000885,0,0
0:4:23.771,495.069,63.0319,0,0.000885,0,0
0:4:24.966,497.649,63.3628,0,0.000885,0,0
0:4:26.174,499.469,63.5972,0,0.000885,0,0
0:4:27.365,502.106,63.9282,0,0.000885,0,0
0:4:28.563,504.806,64.2729,0,0.000885,0,0
0:4:29.772,506.915,64.5418,0,0.000885,0,0
0:4:30.975,509.028,64.8107,0,0.000885,0,0
0:4:32.174,511.55,65.1348,0,0.000885,0,0
0:4:33.377,514.308,65.4864,0,0.000885,0,0
0:4:34.579,516.536,65.7691,0,0.000885,0,0
0:4:35.784,518.178,65.9759,0,0.000885,0,0
0:4:36.976,520.758,66.3069,0,0.000885,0,0
0:4:38.177,523.689,66.6792,0,0.000885,0,0
0:4:39.375,525.451,66.8998,0,0.000885,0,0
0:4:40.579,528.266,67.2584,0,0.000885,0,0
0:4:41.775,530.375,67.5273,0,0.000885,0,0
0:4:42.970,529.321,67.3963,0,0.000885,0,0
0:4:44.161,528.854,67.3342,0,0.000885,0,0
0:4:45.367,530.375,67.5273,0,0.000885,0,0
0:4:46.569,530.201,67.5066,0,0.000885,0,0
0:4:47.771,532.194,67.7617,0,0.000885,0,0
0:4:48.974,528.56,67.2997,0,0.000885,0,0
0:4:50.180,530.962,67.6031,0,0.000885,0,0
0:4:51.370,528.911,67.3411,0,0.000885,0,0
0:4:52.574,529.614,67.4307,0,0.000885,0,0
0:4:53.766,531.02,67.61,0,0.000885,0,0
0:4:54.975,531.082,67.6169,0,0.000885,0,0
0:4:56.174,515.949,65.6932,0,0.000885,0,0
0:4:56.271,515.949,65.6932,0,0.000885,0,0