File: DataFile2021-06-30_070245.csv
Test ID:,Date Tested:,Time:,Test Type:,Diameter Avg. (mm):,Cyl. Corr. Factor:,Height (mm):,Age (days):,Weight (kN):,Break Type:,Ramp Rate (MPa/s):,Load at Break (kN):,Stress at Break (MPa):
12,6/30/2021,07:02,Cylinder,100,1,200,0,3.6,3,0.25,1122.95,142.98
Sample Time,Load (kN),Stress (MPa),Long. Strain,Trans. Strain,Chan1 Deflection (mm),Chan2 Deflection (mm)
0:0:4.786,5.7471,0.730844,0,0.000885,0,0
0:0:7.170,10.0886,1.28242,0,0.000885,0,0
0:0:9.555,14.5457,1.85469,0,0.000885,0,0
0:0:11.972,19.2964,2.45453,0,0.000885,0,0
0:0:14.363,24.2206,3.08196,0,0.000885,0,0
0:0:16.773,28.6199,3.64733,0,0.000885,0,0
0:0:19.163,33.1971,4.22649,0,0.000885,0,0
0:0:21.578,37.9478,4.83322,0,0.000885,0,0
0:0:23.965,42.9921,5.47444,0,0.000885,0,0
0:0:26.377,47.9162,6.10186,0,0.000885,0,0
0:0:28.768,51.9063,6.61207,0,0.000885,0,0
0:0:31.172,57.3598,7.30155,0,0.000885,0,0
0:0:33.567,61.2876,7.80487,0,0.000885,0,0
0:0:35.973,65.9226,8.39092,0,0.000885,0,0
0:0:38.367,71.4963,9.10108,0,0.000885,0,0
0:0:40.769,75.6598,9.63198,0,0.000885,0,0
0:0:43.169,80.6463,10.2663,0,0.000885,0,0
0:0:45.564,85.219,10.8523,0,0.000885,0,0
0:0:47.972,90.4412,11.5142,0,0.000885,0,0
0:0:50.362,95.014,12.1003,0,0.000885,0,0
0:0:52.772,99.529,12.6726,0,0.000885,0,0
0:0:55.165,104.4,13.2931,0,0.000885,0,0
0:0:57.575,108.563,13.824,0,0.000885,0,0
0:0:59.962,113.545,14.4583,0,0.000885,0,0
0:1:2.374,118.065,15.0306,0,0.000885,0,0
0:1:4.763,122.637,15.6166,0,0.000885,0,0
0:1:7.177,127.508,16.2372,0,0.000885,0,0
0:1:9.562,133.02,16.9335,0,0.000885,0,0
0:1:11.974,137.183,17.4644,0,0.000885,0,0
0:1:14.366,141.992,18.0781,0,0.000885,0,0
0:1:16.778,146.449,18.6434,0,0.000885,0,0
0:1:19.166,151.493,19.2915,0,0.000885,0,0
0:1:21.577,155.892,19.85,0,0.000885,0,0
0:1:23.968,160.585,20.443,0,0.000885,0,0
0:1:26.375,165.514,21.0704,0,0.000885,0,0
0:1:28.766,170.202,21.6702,0,0.000885,0,0
0:1:31.174,175.131,22.2976,0,0.000885,0,0
0:1:33.566,179.53,22.8561,0,0.000885,0,0
0:1:35.969,184.161,23.4491,0,0.000885,0,0
0:1:38.369,188.974,24.0627,0,0.000885,0,0
0:1:40.767,193.898,24.6901,0,0.000885,0,0
0:1:43.148,198.649,25.29,0,0.000885,0,0
0:1:45.526,203.457,25.9036,0,0.000885,0,0
0:1:47.906,207.741,26.4483,0,0.000885,0,0
0:1:50.300,212.314,27.0343,0,0.000885,0,0
0:1:52.694,217.594,27.7031,0,0.000885,0,0
0:1:55.070,221.699,28.2271,0,0.000885,0,0
0:1:57.464,226.566,28.8477,0,0.000885,0,0
0:1:59.832,231.316,29.4544,0,0.000885,0,0
0:2:2.226,235.422,29.9784,0,0.000885,0,0
0:2:4.607,240.293,30.592,0,0.000885,0,0
0:2:7.010,245.395,31.247,0,0.000885,0,0
0:2:9.379,249.559,31.7779,0,0.000885,0,0
0:2:11.774,254.719,32.4329,0,0.000885,0,0
0:2:14.142,259.233,33.0052,0,0.000885,0,0
0:2:16.541,264.046,33.6188,0,0.000885,0,0
0:2:18.919,268.797,34.2256,0,0.000885,0,0
0:2:21.331,272.903,34.7496,0,0.000885,0,0
0:2:23.724,278.121,35.4115,0,0.000885,0,0
0:2:26.126,282.578,35.9768,0,0.000885,0,0
0:2:28.515,287.68,36.6318,0,0.000885,0,0
0:2:30.927,291.963,37.1765,0,0.000885,0,0
0:2:33.327,296.888,37.804,0,0.000885,0,0
0:2:35.720,301.758,38.4176,0,0.000885,0,0
0:2:38.106,305.98,38.9554,0,0.000885,0,0
0:2:40.494,310.731,39.5621,0,0.000885,0,0
0:2:42.877,315.423,40.162,0,0.000885,0,0
0:2:45.254,320.174,40.7687,0,0.000885,0,0
0:2:47.645,324.453,41.3134,0,0.000885,0,0
0:2:50.027,329.675,41.9753,0,0.000885,0,0
0:2:52.430,334.075,42.5338,0,0.000885,0,0
0:2:54.814,338.648,43.1198,0,0.000885,0,0
0:2:57.213,343.928,43.7886,0,0.000885,0,0
0:2:59.608,348.558,44.3816,0,0.000885,0,0
0:3:2.026,353.487,45.009,0,0.000885,0,0
0:3:4.426,357.886,45.5675,0,0.000885,0,0
0:3:6.828,362.695,46.1811,0,0.000885,0,0
0:3:9.229,367.503,46.7947,0,0.000885,0,0
0:3:11.625,371.729,47.3325,0,0.000885,0,0
0:3:14.032,376.889,47.9875,0,0.000885,0,0
0:3:16.429,381.23,48.5391,0,0.000885,0,0
0:3:18.829,386.8,49.2493,0,0.000885,0,0
0:3:21.242,391.083,49.7939,0,0.000885,0,0
0:3:23.622,395.598,50.3662,0,0.000885,0,0
0:3:26.032,400.233,50.9592,0,0.000885,0,0
0:3:28.427,405.393,51.6142,0,0.000885,0,0
0:3:30.830,409.85,52.1864,0,0.000885,0,0
0:3:33.235,414.365,52.7587,0,0.000885,0,0
0:3:35.642,418.822,53.3241,0,0.000885,0,0
0:3:38.024,423.693,53.9446,0,0.000885,0,0
0:3:40.432,427.914,54.4824,0,0.000885,0,0
0:3:42.834,433.195,55.1581,0,0.000885,0,0
0:3:45.231,437.532,55.7096,0,0.000885,0,0
0:3:47.634,442.576,56.3509,0,0.000885,0,0
0:3:50.041,448.207,57.0679,0,0.000885,0,0
0:3:52.435,452.135,57.5712,0,0.000885,0,0
0:3:54.831,456.712,58.1504,0,0.000885,0,0
0:3:57.234,461.343,58.7433,0,0.000885,0,0
0:3:59.636,465.804,59.3087,0,0.000885,0,0
0:4:2.026,470.786,59.943,0,0.000885,0,0
0:4:4.425,475.951,60.598,0,0.000885,0,0
0:4:6.831,480.346,61.1565,0,0.000885,0,0
0:4:9.237,485.568,61.8253,0,0.000885,0,0
0:4:11.634,489.616,62.3424,0,0.000885,0,0
0:4:14.036,494.776,62.9974,0,0.000885,0,0
0:4:16.441,499.411,63.5835,0,0.000885,0,0
0:4:18.837,503.632,64.1212,0,0.000885,0,0
0:4:21.246,508.85,64.79,0,0.000885,0,0
0:4:23.641,513.191,65.3416,0,0.000885,0,0
0:4:26.041,518.12,65.969,0,0.000885,0,0
0:4:28.437,522.519,66.5275,0,0.000885,0,0
0:4:30.842,527.621,67.1756,0,0.000885,0,0
0:4:33.239,532.603,67.8099,0,0.000885,0,0
0:4:35.642,537.06,68.3822,0,0.000885,0,0
0:4:38.035,541.522,68.9476,0,0.000885,0,0
0:4:40.436,546.331,69.5612,0,0.000885,0,0
0:4:42.839,551.255,70.1886,0,0.000885,0,0
0:4:45.236,555.481,70.7264,0,0.000885,0,0
0:4:47.642,560.525,71.3676,0,0.000885,0,0
0:4:50.024,564.982,71.933,0,0.000885,0,0
0:4:52.438,570.258,72.6087,0,0.000885,0,0
0:4:54.842,575.066,73.2223,0,0.000885,0,0
0:4:57.230,579.408,73.7739,0,0.000885,0,0
0:4:59.637,583.985,74.3531,0,0.000885,0,0
0:5:2.044,588.967,74.9874,0,0.000885,0,0
0:5:4.446,593.606,75.5803,0,0.000885,0,0
0:5:6.851,598.241,76.1733,0,0.000885,0,0
0:5:9.236,602.587,76.7249,0,0.000885,0,0
0:5:11.648,607.458,77.3454,0,0.000885,0,0
0:5:14.041,612.329,77.9659,0,0.000885,0,0
0:5:16.446,617.204,78.5864,0,0.000885,0,0
0:5:18.834,621.781,79.1656,0,0.000885,0,0
0:5:21.248,627.066,79.8413,0,0.000885,0,0
0:5:23.640,631.407,80.3929,0,0.000885,0,0
0:5:26.053,635.984,80.9789,0,0.000885,0,0
0:5:28.444,640.797,81.5857,0,0.000885,0,0
0:5:30.855,645.321,82.1648,0,0.000885,0,0
0:5:33.240,650.308,82.7991,0,0.000885,0,0
0:5:35.656,654.885,83.3852,0,0.000885,0,0
0:5:38.049,659.582,83.9781,0,0.000885,0,0
0:5:40.459,664.222,84.5711,0,0.000885,0,0
0:5:42.845,668.799,85.1571,0,0.000885,0,0
0:5:45.249,673.728,85.7846,0,0.000885,0,0
0:5:47.650,678.719,86.4189,0,0.000885,0,0
0:5:50.047,683.122,86.9774,0,0.000885,0,0
0:5:52.453,687.464,87.5289,0,0.000885,0,0
0:5:54.838,692.69,88.1977,0,0.000885,0,0
0:5:57.247,697.383,88.7907,0,0.000885,0,0
0:5:59.642,701.907,89.3698,0,0.000885,0,0
0:6:2.044,706.427,89.9421,0,0.000885,0,0
0:6:4.444,711.355,90.5695,0,0.000885,0,0
0:6:6.852,716.052,91.1694,0,0.000885,0,0
0:6:9.238,720.688,91.7623,0,0.000885,0,0
0:6:11.654,725.269,92.3415,0,0.000885,0,0
0:6:14.047,730.256,92.9758,0,0.000885,0,0
0:6:16.463,734.775,93.555,0,0.000885,0,0
0:6:18.853,739.53,94.1617,0,0.000885,0,0
0:6:21.256,744.285,94.7684,0,0.000885,0,0
0:6:23.649,749.218,95.3959,0,0.000885,0,0
0:6:26.060,753.56,95.9474,0,0.000885,0,0
0:6:28.448,758.724,96.6024,0,0.000885,0,0
0:6:30.861,762.95,97.1402,0,0.000885,0,0
0:6:33.247,767.825,97.7608,0,0.000885,0,0
0:6:35.654,773.048,98.4296,0,0.000885,0,0
0:6:38.050,777.216,98.9605,0,0.000885,0,0
0:6:40.457,782.38,99.6155,0,0.000885,0,0
0:6:42.848,786.548,100.146,0,0.000885,0,0
0:6:45.254,791.423,100.767,0,0.000885,0,0
0:6:47.658,796.645,101.429,0,0.000885,0,0
0:6:50.053,800.462,101.918,0,0.000885,0,0
0:6:52.449,806.098,102.635,0,0.000885,0,0
0:6:54.854,810.559,103.201,0,0.000885,0,0
0:6:57.256,815.079,103.78,0,0.000885,0,0
0:6:59.642,819.714,104.366,0,0.000885,0,0
0:7:2.052,824.411,104.966,0,0.000885,0,0
0:7:4.449,829.518,105.621,0,0.000885,0,0
0:7:6.855,833.628,106.138,0,0.000885,0,0
0:7:9.250,838.734,106.793,0,0.000885,0,0
0:7:11.655,843.312,107.372,0,0.000885,0,0
0:7:14.045,848.182,107.993,0,0.000885,0,0
0:7:16.462,852.177,108.503,0,0.000885,0,0
0:7:18.850,857.106,109.13,0,0.000885,0,0
0:7:21.262,862.506,109.82,0,0.000885,0,0
0:7:23.659,867.083,110.399,0,0.000885,0,0
0:7:26.061,871.251,110.93,0,0.000885,0,0
0:7:28.453,876.126,111.55,0,0.000885,0,0
0:7:30.863,880.761,112.143,0,0.000885,0,0
0:7:33.247,885.926,112.798,0,0.000885,0,0
0:7:35.663,890.387,113.37,0,0.000885,0,0
0:7:38.056,895.084,113.963,0,0.000885,0,0
0:7:40.464,899.955,114.584,0,0.000885,0,0
0:7:42.862,904.533,115.17,0,0.000885,0,0
0:7:45.256,909.644,115.818,0,0.000885,0,0
0:7:47.649,914.101,116.39,0,0.000885,0,0
0:7:50.061,919.034,117.018,0,0.000885,0,0
0:7:52.455,923.375,117.569,0,0.000885,0,0
0:7:54.849,928.073,118.169,0,0.000885,0,0
0:7:57.255,932.65,118.748,0,0.000885,0,0
0:7:59.654,937.641,119.383,0,0.000885,0,0
0:8:2.060,942.218,119.969,0,0.000885,0,0
0:8:4.464,946.8,120.548,0,0.000885,0,0
0:8:6.868,951.906,121.203,0,0.000885,0,0
0:8:9.246,956.483,121.782,0,0.000885,0,0
0:8:11.666,961.118,122.375,0,0.000885,0,0
0:8:14.056,965.522,122.934,0,0.000885,0,0
0:8:16.460,970.686,123.589,0,0.000885,0,0
0:8:18.865,975.442,124.195,0,0.000885,0,0
0:8:21.269,979.788,124.754,0,0.000885,0,0
0:8:23.658,985.01,125.416,0,0.000885,0,0
0:8:26.069,989.298,125.96,0,0.000885,0,0
0:8:28.457,994.814,126.664,0,0.000885,0,0
0:8:30.867,998.394,127.119,0,0.000885,0,0
0:8:33.251,1003.5,127.767,0,0.000885,0,0
0:8:35.671,1008.67,128.429,0,0.000885,0,0
0:8:38.059,1012.6,128.925,0,0.000885,0,0
0:8:40.463,1017.94,129.608,0,0.000885,0,0
0:8:42.855,1022.64,130.207,0,0.000885,0,0
0:8:45.254,1027.63,130.842,0,0.000885,0,0
0:8:47.655,1031.62,131.352,0,0.000885,0,0
0:8:50.059,1036.61,131.986,0,0.000885,0,0
0:8:52.464,1041.07,132.552,0,0.000885,0,0
0:8:54.862,1046.29,133.221,0,0.000885,0,0
0:8:57.265,1050.64,133.772,0,0.000885,0,0
0:8:59.647,1055.57,134.4,0,0.000885,0,0
0:9:2.063,1060.09,134.972,0,0.000885,0,0
0:9:4.464,1064.66,135.558,0,0.000885,0,0
0:9:6.872,1070.54,136.302,0,0.000885,0,0
0:9:9.261,1074,136.744,0,0.000885,0,0
0:9:11.664,1079.17,137.406,0,0.000885,0,0
0:9:14.058,1083.92,138.005,0,0.000885,0,0
0:9:16.483,1088.56,138.598,0,0.000885,0,0
0:9:18.863,1093.43,139.219,0,0.000885,0,0
0:9:21.271,1097.48,139.736,0,0.000885,0,0
0:9:23.658,1102.7,140.398,0,0.000885,0,0
0:9:26.072,1106.58,140.894,0,0.000885,0,0
0:9:28.464,1111.1,141.467,0,0.000885,0,0
0:9:30.861,1118.2,142.377,0,0.000885,0,0
0:9:33.272,1114.56,141.908,0,0.000885,0,0
0:9:34.854,1075.53,136.937,0,0.000885,0,0