File: DataFile2021-06-07_041655.csv
Test ID:,Date Tested:,Time:,Test Type:,Diameter Avg. (mm):,Cyl. Corr. Factor:,Height (mm):,Age (days):,Weight (kN):,Break Type:,Ramp Rate (MPa/s):,Load at Break (kN):,Stress at Break (MPa):
12,6/7/2021,04:16,Cylinder,100,1,200,0,3.6,3,0.24,527.27,67.13
Sample Time,Load (kN),Stress (MPa),Long. Strain,Trans. Strain,Chan1 Deflection (mm),Chan2 Deflection (mm)
0:0:13.980,5.33787,0.682581,0,0.000885,0,0
0:0:15.170,10.3821,1.32379,0,0.000885,0,0
0:0:16.366,10.44,1.33069,0,0.000885,0,0
0:0:17.555,11.6721,1.48927,0,0.000885,0,0
0:0:18.743,13.785,1.75816,0,0.000885,0,0
0:0:19.961,16.7164,2.13048,0,0.000885,0,0
0:0:21.168,19.3542,2.46143,0,0.000885,0,0
0:0:22.363,21.992,2.79927,0,0.000885,0,0
0:0:23.559,24.1049,3.06817,0,0.000885,0,0
0:0:24.756,26.2178,3.33706,0,0.000885,0,0
0:0:25.970,29.0914,3.70248,0,0.000885,0,0
0:0:27.165,31.3778,3.99206,0,0.000885,0,0
0:0:28.358,33.6641,4.28854,0,0.000885,0,0
0:0:29.564,35.6614,4.54365,0,0.000885,0,0
0:0:30.772,38.1213,4.85391,0,0.000885,0,0
0:0:31.964,40.4699,5.15038,0,0.000885,0,0
0:0:33.162,42.7563,5.44686,0,0.000885,0,0
0:0:34.356,45.4519,5.7847,0,0.000885,0,0
0:0:35.570,47.8006,6.08807,0,0.000885,0,0
0:0:36.769,50.1448,6.38455,0,0.000885,0,0
0:0:37.961,52.3155,6.66034,0,0.000885,0,0
0:0:39.149,54.8377,6.98439,0,0.000885,0,0
0:0:40.366,57.0084,7.26018,0,0.000885,0,0
0:0:41.565,59.8241,7.61871,0,0.000885,0,0
0:0:42.758,61.9949,7.8945,0,0.000885,0,0
0:0:43.955,63.9877,8.1496,0,0.000885,0,0
0:0:45.161,66.6877,8.48745,0,0.000885,0,0
0:0:46.365,68.9163,8.77703,0,0.000885,0,0
0:0:47.561,71.0248,9.04592,0,0.000885,0,0
0:0:48.763,73.4312,9.34929,0,0.000885,0,0
0:0:49.973,75.6598,9.63198,0,0.000885,0,0
0:0:51.175,78.4755,9.9905,0,0.000885,0,0
0:0:52.369,80.3527,10.2318,0,0.000885,0,0
0:0:53.561,82.9905,10.5697,0,0.000885,0,0
0:0:54.768,85.397,10.873,0,0.000885,0,0
0:0:55.975,87.5054,11.1419,0,0.000885,0,0
0:0:57.167,89.7918,11.4315,0,0.000885,0,0
0:0:58.363,92.3762,11.7625,0,0.000885,0,0
0:0:59.558,94.5425,12.0382,0,0.000885,0,0
0:1:0.774,97.4783,12.4106,0,0.000885,0,0
0:1:1.971,99.8225,12.707,0,0.000885,0,0
0:1:3.163,101.758,12.9552,0,0.000885,0,0
0:1:4.364,103.813,13.2172,0,0.000885,0,0
0:1:5.578,106.508,13.562,0,0.000885,0,0
0:1:6.778,108.973,13.8723,0,0.000885,0,0
0:1:7.968,111.495,14.1963,0,0.000885,0,0
0:1:9.163,113.545,14.4583,0,0.000885,0,0
0:1:10.376,116.188,14.7961,0,0.000885,0,0
0:1:11.572,117.945,15.0168,0,0.000885,0,0
0:1:12.768,120.818,15.3822,0,0.000885,0,0
0:1:13.960,122.758,15.6304,0,0.000885,0,0
0:1:15.176,125.275,15.9476,0,0.000885,0,0
0:1:16.379,127.797,16.2716,0,0.000885,0,0
0:1:17.573,130.026,16.5543,0,0.000885,0,0
0:1:18.765,132.375,16.8577,0,0.000885,0,0
0:1:19.970,134.488,17.1266,0,0.000885,0,0
0:1:21.177,137.299,17.4851,0,0.000885,0,0
0:1:22.368,139.821,17.8023,0,0.000885,0,0
0:1:23.563,141.405,18.0022,0,0.000885,0,0
0:1:24.770,143.633,18.2849,0,0.000885,0,0
0:1:25.971,146.8,18.6917,0,0.000885,0,0
0:1:27.168,148.855,18.9537,0,0.000885,0,0
0:1:28.363,151.493,19.2915,0,0.000885,0,0
0:1:29.570,154.015,19.6087,0,0.000885,0,0
0:1:30.782,156.302,19.8983,0,0.000885,0,0
0:1:31.975,158.944,20.2361,0,0.000885,0,0
0:1:33.165,160.643,20.4567,0,0.000885,0,0
0:1:34.360,162.698,20.7119,0,0.000885,0,0
0:1:35.573,165.042,21.0152,0,0.000885,0,0
0:1:36.771,168.032,21.3944,0,0.000885,0,0
0:1:37.965,170.265,21.6771,0,0.000885,0,0
0:1:39.163,172.667,21.9874,0,0.000885,0,0
0:1:40.374,175.073,22.2908,0,0.000885,0,0
0:1:41.569,177.008,22.539,0,0.000885,0,0
0:1:42.763,178.885,22.7734,0,0.000885,0,0
0:1:43.950,181.759,23.1388,0,0.000885,0,0
0:1:45.164,184.223,23.456,0,0.000885,0,0
0:1:46.366,186.861,23.7938,0,0.000885,0,0
0:1:47.565,188.738,24.0282,0,0.000885,0,0
0:1:48.758,191.318,24.3592,0,0.000885,0,0
0:1:49.964,194.134,24.7177,0,0.000885,0,0
0:1:51.167,196.069,24.9659,0,0.000885,0,0
0:1:52.362,198.119,25.2279,0,0.000885,0,0
0:1:53.554,200.059,25.4692,0,0.000885,0,0
0:1:54.765,203.457,25.9036,0,0.000885,0,0
0:1:55.966,205.041,26.1036,0,0.000885,0,0
0:1:57.163,208.266,26.5172,0,0.000885,0,0
0:1:58.352,210.027,26.7448,0,0.000885,0,0
0:1:59.556,212.785,27.0895,0,0.000885,0,0
0:2:0.759,214.542,27.317,0,0.000885,0,0
0:2:1.969,217.184,27.6549,0,0.000885,0,0
0:2:3.165,219.351,27.9307,0,0.000885,0,0
0:2:4.351,222.58,28.3375,0,0.000885,0,0
0:2:5.554,224.573,28.5926,0,0.000885,0,0
0:2:6.760,226.334,28.8201,0,0.000885,0,0
0:2:7.957,229.208,29.1855,0,0.000885,0,0
0:2:9.148,231.494,29.4751,0,0.000885,0,0
0:2:10.352,233.896,29.7785,0,0.000885,0,0
0:2:11.565,236.067,30.0542,0,0.000885,0,0
0:2:12.767,237.535,30.2404,0,0.000885,0,0
0:2:13.958,241.289,30.723,0,0.000885,0,0
0:2:15.165,242.459,30.8678,0,0.000885,0,0
0:2:16.365,246.098,31.3367,0,0.000885,0,0
0:2:17.557,248.269,31.6125,0,0.000885,0,0
0:2:18.753,249.559,31.7779,0,0.000885,0,0
0:2:19.973,252.49,32.1503,0,0.000885,0,0
0:2:21.166,254.661,32.426,0,0.000885,0,0
0:2:22.372,257.183,32.7432,0,0.000885,0,0
0:2:23.562,259.469,33.0397,0,0.000885,0,0
0:2:24.768,262.107,33.3706,0,0.000885,0,0
0:2:25.971,264.104,33.6257,0,0.000885,0,0
0:2:27.162,266.506,33.936,0,0.000885,0,0
0:2:28.355,268.855,34.2325,0,0.000885,0,0
0:2:29.562,271.671,34.591,0,0.000885,0,0
0:2:30.765,273.428,34.8116,0,0.000885,0,0
0:2:31.973,275.95,35.1357,0,0.000885,0,0
0:2:33.158,278.299,35.4322,0,0.000885,0,0
0:2:34.354,281.346,35.8252,0,0.000885,0,0
0:2:35.558,283.574,36.1078,0,0.000885,0,0
0:2:36.756,285.216,36.3147,0,0.000885,0,0
0:2:37.957,287.444,36.5974,0,0.000885,0,0
0:2:39.161,290.144,36.9421,0,0.000885,0,0
0:2:40.369,292.488,37.2386,0,0.000885,0,0
0:2:41.567,294.308,37.473,0,0.000885,0,0
0:2:42.762,297.59,37.8936,0,0.000885,0,0
0:2:43.968,299.174,38.0935,0,0.000885,0,0
0:2:45.176,301.696,38.4107,0,0.000885,0,0
0:2:46.371,304.338,38.7485,0,0.000885,0,0
0:2:47.563,306.447,39.0174,0,0.000885,0,0
0:2:48.757,309.089,39.3553,0,0.000885,0,0
0:2:49.964,310.908,39.5828,0,0.000885,0,0
0:2:51.160,313.075,39.8655,0,0.000885,0,0
0:2:52.361,316.593,40.3068,0,0.000885,0,0
0:2:53.549,318.119,40.5067,0,0.000885,0,0
0:2:54.757,320.993,40.8721,0,0.000885,0,0
0:2:55.962,322.696,41.0859,0,0.000885,0,0
0:2:57.168,326.566,41.5823,0,0.000885,0,0
0:2:58.359,327.972,41.7615,0,0.000885,0,0
0:2:59.564,329.733,41.9822,0,0.000885,0,0
0:3:0.762,332.607,42.3476,0,0.000885,0,0
0:3:1.956,335.365,42.6992,0,0.000885,0,0
0:3:3.175,337.709,42.9957,0,0.000885,0,0
0:3:4.372,339.235,43.1957,0,0.000885,0,0
0:3:5.574,342.05,43.5542,0,0.000885,0,0
0:3:6.760,343.634,43.7541,0,0.000885,0,0
0:3:7.943,346.975,44.1816,0,0.000885,0,0
0:3:9.127,349.497,44.4988,0,0.000885,0,0
0:3:10.332,351.08,44.6987,0,0.000885,0,0
0:3:11.521,352.664,44.9056,0,0.000885,0,0
0:3:12.704,355.48,45.2641,0,0.000885,0,0
0:3:13.893,359.06,45.7191,0,0.000885,0,0
0:3:15.088,360.875,45.9467,0,0.000885,0,0
0:3:16.285,362.873,46.2018,0,0.000885,0,0
0:3:17.473,365.453,46.5327,0,0.000885,0,0
0:3:18.655,368.033,46.8568,0,0.000885,0,0
0:3:19.855,370.083,47.1188,0,0.000885,0,0
0:3:21.060,371.845,47.3463,0,0.000885,0,0
0:3:22.256,375.012,47.7462,0,0.000885,0,0
0:3:23.437,377.298,48.0358,0,0.000885,0,0
0:3:24.633,379.175,48.2771,0,0.000885,0,0
0:3:25.834,382.049,48.6425,0,0.000885,0,0
0:3:27.015,383.517,48.8287,0,0.000885,0,0
0:3:28.202,386.448,49.201,0,0.000885,0,0
0:3:29.388,389.086,49.5388,0,0.000885,0,0
0:3:30.593,391.377,49.8284,0,0.000885,0,0
0:3:31.780,393.427,50.0904,0,0.000885,0,0
0:3:32.965,395.42,50.3455,0,0.000885,0,0
0:3:34.173,397.942,50.6696,0,0.000885,0,0
0:3:35.377,400.349,50.9729,0,0.000885,0,0
0:3:36.575,403.222,51.3384,0,0.000885,0,0
0:3:37.765,404.806,51.5383,0,0.000885,0,0
0:3:38.959,407.622,51.8968,0,0.000885,0,0
0:3:40.162,409.614,52.1519,0,0.000885,0,0
0:3:41.374,412.43,52.5105,0,0.000885,0,0
0:3:42.563,414.717,52.8001,0,0.000885,0,0
0:3:43.773,417.123,53.1103,0,0.000885,0,0
0:3:44.971,418.88,53.3309,0,0.000885,0,0
0:3:46.177,421.754,53.6964,0,0.000885,0,0
0:3:47.363,423.982,53.9859,0,0.000885,0,0
0:3:48.559,426.095,54.2548,0,0.000885,0,0
0:3:49.761,428.969,54.6203,0,0.000885,0,0
0:3:50.955,431.139,54.8961,0,0.000885,0,0
0:3:52.181,433.368,55.1787,0,0.000885,0,0
0:3:53.371,435.717,55.4752,0,0.000885,0,0
0:3:54.571,438.003,55.7648,0,0.000885,0,0
0:3:55.770,440.756,56.1164,0,0.000885,0,0
0:3:56.953,443.163,56.4267,0,0.000885,0,0
0:3:58.169,444.631,56.6129,0,0.000885,0,0
0:3:59.356,447.269,56.9507,0,0.000885,0,0
0:4:0.563,450.258,57.3299,0,0.000885,0,0
0:4:1.782,452.607,57.6264,0,0.000885,0,0
0:4:2.964,454.306,57.847,0,0.000885,0,0
0:4:4.177,456.828,58.1642,0,0.000885,0,0
0:4:5.384,459.528,58.5089,0,0.000885,0,0
0:4:6.583,461.872,58.8054,0,0.000885,0,0
0:4:7.766,463.985,59.0743,0,0.000885,0,0
0:4:8.964,466.271,59.3708,0,0.000885,0,0
0:4:10.169,468.794,59.6879,0,0.000885,0,0
0:4:11.366,471.489,60.0327,0,0.000885,0,0
0:4:12.553,473.722,60.3153,0,0.000885,0,0
0:4:13.739,476.066,60.6118,0,0.000885,0,0
0:4:14.937,478.117,60.8738,0,0.000885,0,0
0:4:16.134,480.702,61.2048,0,0.000885,0,0
0:4:17.320,483.046,61.5012,0,0.000885,0,0
0:4:18.503,485.804,61.8529,0,0.000885,0,0
0:4:19.698,487.036,62.0114,0,0.000885,0,0
0:4:20.904,489.553,62.3355,0,0.000885,0,0
0:4:22.087,492.138,62.6596,0,0.000885,0,0
0:4:23.283,494.246,62.9284,0,0.000885,0,0
0:4:24.483,497.004,63.2801,0,0.000885,0,0
0:4:25.680,499.526,63.6041,0,0.000885,0,0
0:4:26.874,502.106,63.9282,0,0.000885,0,0
0:4:28.083,504.219,64.1971,0,0.000885,0,0
0:4:29.268,506.096,64.4384,0,0.000885,0,0
0:4:30.474,508.792,64.7831,0,0.000885,0,0
0:4:31.681,510.669,65.0176,0,0.000885,0,0
0:4:32.874,513.307,65.3554,0,0.000885,0,0
0:4:34.066,515.829,65.6795,0,0.000885,0,0
0:4:35.273,518.293,65.9897,0,0.000885,0,0
0:4:36.472,520.171,66.231,0,0.000885,0,0
0:4:37.674,522.163,66.4861,0,0.000885,0,0
0:4:38.872,521.167,66.3551,0,0.000885,0,0
0:4:40.071,524.218,66.7481,0,0.000885,0,0
0:4:41.267,526.153,66.9895,0,0.000885,0,0
0:4:42.464,517.061,65.8311,0,0.000885,0,0
0:4:43.646,500.816,63.7627,0,0.000885,0,0
0:4:44.844,505.509,64.3626,0,0.000885,0,0
0:4:46.035,491.666,62.6044,0,0.000885,0,0
0:4:47.219,488.557,62.2045,0,0.000885,0,0
0:4:48.397,493.192,62.7974,0,0.000885,0,0
0:4:49.590,497.534,63.349,0,0.000885,0,0
0:4:50.791,500.638,63.742,0,0.000885,0,0
0:4:51.978,502.751,64.0109,0,0.000885,0,0
0:4:53.183,504.806,64.2729,0,0.000885,0,0
0:4:54.387,465.391,59.2535,0,0.000885,0,0
0:4:55.587,437.416,55.6958,0,0.000885,0,0
0:4:56.771,434.894,55.3718,0,0.000885,0,0
0:4:57.284,376.538,47.9392,0,0.000885,0,0