File: DataFile2021-07-15_061632.csv
Test ID:,Date Tested:,Time:,Test Type:,Diameter Avg. (mm):,Cyl. Corr. Factor:,Height (mm):,Age (days):,Weight (kN):,Break Type:,Ramp Rate (MPa/s):,Load at Break (kN):,Stress at Break (MPa):
12,7/15/2021,06:16,Cylinder,150,1,300,0,3.6,3,0.25,1628,92.13
Sample Time,Load (kN),Stress (MPa),Long. Strain,Trans. Strain,Chan1 Deflection (mm),Chan2 Deflection (mm)
0:0:10.683,6.86361,0.386106,0,0.000885,0,0
0:0:12.281,11.3207,0.641212,0,0.000885,0,0
0:0:13.880,18.5357,1.048,0,0.000885,0,0
0:0:15.483,25.8041,1.46169,0,0.000885,0,0
0:0:17.093,33.6063,1.90295,0,0.000885,0,0
0:0:18.696,42.4627,2.40627,0,0.000885,0,0
0:0:20.287,48.3299,2.73722,0,0.000885,0,0
0:0:21.899,54.3083,3.07506,0,0.000885,0,0
0:0:23.496,62.7555,3.5508,0,0.000885,0,0
0:0:25.088,69.3255,3.92312,0,0.000885,0,0
0:0:26.696,75.7176,4.28164,0,0.000885,0,0
0:0:28.298,83.6355,4.7298,0,0.000885,0,0
0:0:29.891,90.3211,5.10902,0,0.000885,0,0
0:0:31.495,97.5362,5.5227,0,0.000885,0,0
0:0:33.103,104.809,5.92949,0,0.000885,0,0
0:0:34.698,112.14,6.34318,0,0.000885,0,0
0:0:36.291,118.18,6.68791,0,0.000885,0,0
0:0:37.906,125.983,7.12918,0,0.000885,0,0
0:0:39.499,132.784,7.51529,0,0.000885,0,0
0:0:41.098,140.466,7.94966,0,0.000885,0,0
0:0:42.706,147.094,8.32197,0,0.000885,0,0
0:0:44.301,154.015,8.71497,0,0.000885,0,0
0:0:45.893,160.937,9.10797,0,0.000885,0,0
0:0:47.510,167.916,9.50098,0,0.000885,0,0
0:0:49.105,175.011,9.90087,0,0.000885,0,0
0:0:50.699,182.462,10.3283,0,0.000885,0,0
0:0:52.310,189.441,10.7213,0,0.000885,0,0
0:0:53.901,196.184,11.1006,0,0.000885,0,0
0:0:55.479,202.99,11.4867,0,0.000885,0,0
0:0:57.084,210.85,11.9348,0,0.000885,0,0
0:0:58.672,217.767,12.3209,0,0.000885,0,0
0:1:0.278,224.515,12.707,0,0.000885,0,0
0:1:1.887,231.61,13.1069,0,0.000885,0,0
0:1:3.487,238.883,13.5206,0,0.000885,0,0
0:1:5.077,246.04,13.9205,0,0.000885,0,0
0:1:6.688,252.668,14.2997,0,0.000885,0,0
0:1:8.281,259.821,14.6996,0,0.000885,0,0
0:1:9.881,267.036,15.1133,0,0.000885,0,0
0:1:11.490,274.776,15.5477,0,0.000885,0,0
0:1:13.086,281.23,15.9131,0,0.000885,0,0
0:1:14.687,287.973,16.2992,0,0.000885,0,0
0:1:16.288,294.486,16.6646,0,0.000885,0,0
0:1:17.884,302.283,17.1059,0,0.000885,0,0
0:1:19.474,309.734,17.5265,0,0.000885,0,0
0:1:21.088,317.007,17.9402,0,0.000885,0,0
0:1:22.692,322.754,18.2642,0,0.000885,0,0
0:1:24.281,330.143,18.6848,0,0.000885,0,0
0:1:25.880,337.473,19.0985,0,0.000885,0,0
0:1:27.486,345.218,19.5328,0,0.000885,0,0
0:1:29.087,352.197,19.9327,0,0.000885,0,0
0:1:30.675,358.473,20.2844,0,0.000885,0,0
0:1:32.286,366.213,20.7256,0,0.000885,0,0
0:1:33.885,372.841,21.098,0,0.000885,0,0
0:1:35.474,379.762,21.491,0,0.000885,0,0
0:1:37.073,388.032,21.9598,0,0.000885,0,0
0:1:38.677,395.069,22.3597,0,0.000885,0,0
0:1:40.290,401.581,22.7251,0,0.000885,0,0
0:1:41.888,408.382,23.1112,0,0.000885,0,0
0:1:43.487,415.655,23.518,0,0.000885,0,0
0:1:45.086,422.692,23.9179,0,0.000885,0,0
0:1:46.688,429.907,24.3247,0,0.000885,0,0
0:1:48.286,436.184,24.6832,0,0.000885,0,0
0:1:49.884,443.399,25.09,0,0.000885,0,0
0:1:51.488,450.965,25.5175,0,0.000885,0,0
0:1:53.090,458.002,25.9174,0,0.000885,0,0
0:1:54.690,464.688,26.2966,0,0.000885,0,0
0:1:56.291,472.254,26.7241,0,0.000885,0,0
0:1:57.890,479.994,27.1653,0,0.000885,0,0
0:1:59.490,485.684,27.4825,0,0.000885,0,0
0:2:1.091,492.841,27.8893,0,0.000885,0,0
0:2:2.695,500.638,28.3306,0,0.000885,0,0
0:2:4.293,507.502,28.7167,0,0.000885,0,0
0:2:5.894,514.539,29.1166,0,0.000885,0,0
0:2:7.503,521.874,29.5302,0,0.000885,0,0
0:2:9.094,528.266,29.8957,0,0.000885,0,0
0:2:10.688,535.655,30.3094,0,0.000885,0,0
0:2:12.282,542.341,30.6886,0,0.000885,0,0
0:2:13.891,549.613,31.1023,0,0.000885,0,0
0:2:15.490,557.295,31.5366,0,0.000885,0,0
0:2:17.088,564.217,31.9296,0,0.000885,0,0
0:2:18.689,571.196,32.3226,0,0.000885,0,0
0:2:20.291,577.882,32.7018,0,0.000885,0,0
0:2:21.889,585.506,33.1362,0,0.000885,0,0
0:2:23.491,592.254,33.5154,0,0.000885,0,0
0:2:25.089,599.358,33.9153,0,0.000885,0,0
0:2:26.701,606.755,34.3359,0,0.000885,0,0
0:2:28.299,613.503,34.7151,0,0.000885,0,0
0:2:29.888,620.313,35.1012,0,0.000885,0,0
0:2:31.495,627.591,35.5149,0,0.000885,0,0
0:2:33.100,635.339,35.9562,0,0.000885,0,0
0:2:34.691,641.563,36.3078,0,0.000885,0,0
0:2:36.290,648.315,36.687,0,0.000885,0,0
0:2:37.903,655.477,37.0938,0,0.000885,0,0
0:2:39.490,662.638,37.5006,0,0.000885,0,0
0:2:41.092,669.973,37.9143,0,0.000885,0,0
0:2:42.699,677.544,38.3417,0,0.000885,0,0
0:2:44.288,683.709,38.6934,0,0.000885,0,0
0:2:45.895,691.165,39.114,0,0.000885,0,0
0:2:47.510,698.268,39.5139,0,0.000885,0,0
0:2:49.101,705.546,39.9275,0,0.000885,0,0
0:2:50.691,712.356,40.3136,0,0.000885,0,0
0:2:52.296,719.398,40.7066,0,0.000885,0,0
0:2:53.891,726.737,41.1272,0,0.000885,0,0
0:2:55.485,733.543,41.5133,0,0.000885,0,0
0:2:57.107,740.762,41.9201,0,0.000885,0,0
0:2:58.697,747.573,42.3062,0,0.000885,0,0
0:3:0.285,754.734,42.7061,0,0.000885,0,0
0:3:1.903,762.132,43.1267,0,0.000885,0,0
0:3:3.500,769.115,43.5197,0,0.000885,0,0
0:3:5.096,775.868,43.9058,0,0.000885,0,0
0:3:6.696,783.439,44.3333,0,0.000885,0,0
0:3:8.296,789.777,44.6918,0,0.000885,0,0
0:3:9.894,797.468,45.1262,0,0.000885,0,0
0:3:11.497,804.572,45.5261,0,0.000885,0,0
0:3:13.104,811.965,45.9467,0,0.000885,0,0
0:3:14.691,818.246,46.3052,0,0.000885,0,0
0:3:16.300,825.759,46.7258,0,0.000885,0,0
0:3:17.903,832.689,47.1188,0,0.000885,0,0
0:3:19.495,840.14,47.5394,0,0.000885,0,0
0:3:21.102,846.715,47.9117,0,0.000885,0,0
0:3:22.716,854.112,48.3322,0,0.000885,0,0
0:3:24.302,860.571,48.6977,0,0.000885,0,0
0:3:25.892,867.377,49.0838,0,0.000885,0,0
0:3:27.505,874.658,49.4975,0,0.000885,0,0
0:3:29.096,882.056,49.9111,0,0.000885,0,0
0:3:30.696,889.391,50.3317,0,0.000885,0,0
0:3:32.309,896.023,50.704,0,0.000885,0,0
0:3:33.897,903.243,51.1108,0,0.000885,0,0
0:3:35.495,910.289,51.5107,0,0.000885,0,0
0:3:37.111,917.036,51.8968,0,0.000885,0,0
0:3:38.705,924.26,52.3036,0,0.000885,0,0
0:3:40.290,931.418,52.7104,0,0.000885,0,0
0:3:41.895,938.699,53.1172,0,0.000885,0,0
0:3:43.500,945.389,53.4964,0,0.000885,0,0
0:3:45.087,953.138,53.9377,0,0.000885,0,0
0:3:46.698,959.828,54.3169,0,0.000885,0,0
0:3:48.303,966.696,54.703,0,0.000885,0,0
0:3:49.900,974.859,55.165,0,0.000885,0,0
0:3:51.498,980.49,55.4821,0,0.000885,0,0
0:3:53.099,988.297,55.9234,0,0.000885,0,0
0:3:54.693,995.285,56.3233,0,0.000885,0,0
0:3:56.299,1002.27,56.7163,0,0.000885,0,0
0:3:57.905,1009.19,57.1093,0,0.000885,0,0
0:3:59.491,1016.24,57.5092,0,0.000885,0,0
0:4:1.090,1023.7,57.9298,0,0.000885,0,0
0:4:2.705,1030.21,58.2952,0,0.000885,0,0
0:4:4.292,1037.61,58.7158,0,0.000885,0,0
0:4:5.903,1044.65,59.1156,0,0.000885,0,0
0:4:7.515,1051.93,59.5293,0,0.000885,0,0
0:4:9.103,1058.74,59.9154,0,0.000885,0,0
0:4:10.699,1065.9,60.3153,0,0.000885,0,0
0:4:12.312,1072.48,60.6877,0,0.000885,0,0
0:4:13.901,1079.75,61.1013,0,0.000885,0,0
0:4:15.490,1086.97,61.5081,0,0.000885,0,0
0:4:17.108,1094.25,61.9218,0,0.000885,0,0
0:4:18.705,1100.94,62.301,0,0.000885,0,0
0:4:20.303,1108.46,62.7285,0,0.000885,0,0
0:4:21.902,1115.5,63.1215,0,0.000885,0,0
0:4:23.501,1122.78,63.5352,0,0.000885,0,0
0:4:25.087,1129.41,63.9144,0,0.000885,0,0
0:4:26.712,1136.93,64.335,0,0.000885,0,0
0:4:28.309,1143.21,64.6935,0,0.000885,0,0
0:4:29.899,1150.31,65.0934,0,0.000885,0,0
0:4:31.500,1157.94,65.5278,0,0.000885,0,0
0:4:33.104,1164.75,65.9139,0,0.000885,0,0
0:4:34.690,1171.85,66.3138,0,0.000885,0,0
0:4:36.292,1178.01,66.6654,0,0.000885,0,0
0:4:37.901,1185.88,67.1067,0,0.000885,0,0
0:4:39.497,1193.04,67.5135,0,0.000885,0,0
0:4:41.095,1200.32,67.9271,0,0.000885,0,0
0:4:42.711,1206.95,68.2995,0,0.000885,0,0
0:4:44.302,1214.94,68.7545,0,0.000885,0,0
0:4:45.895,1221.04,69.0993,0,0.000885,0,0
0:4:47.506,1228.02,69.4923,0,0.000885,0,0
0:4:49.097,1235.42,69.9128,0,0.000885,0,0
0:4:50.697,1242.47,70.3058,0,0.000885,0,0
0:4:52.306,1249.86,70.7264,0,0.000885,0,0
0:4:53.903,1256.73,71.1194,0,0.000885,0,0
0:4:55.487,1263.01,71.4711,0,0.000885,0,0
0:4:57.093,1270.64,71.9054,0,0.000885,0,0
0:4:58.694,1277.92,72.3122,0,0.000885,0,0
0:5:0.306,1285.02,72.719,0,0.000885,0,0
0:5:1.912,1292.36,73.1327,0,0.000885,0,0
0:5:3.508,1299.81,73.5533,0,0.000885,0,0
0:5:5.095,1306.15,73.9118,0,0.000885,0,0
0:5:6.715,1313.14,74.3117,0,0.000885,0,0
0:5:8.316,1320.24,74.7116,0,0.000885,0,0
0:5:9.905,1327.76,75.1391,0,0.000885,0,0
0:5:11.496,1334.74,75.5321,0,0.000885,0,0
0:5:13.104,1341.26,75.8975,0,0.000885,0,0
0:5:14.700,1348.54,76.3112,0,0.000885,0,0
0:5:16.299,1355.28,76.6904,0,0.000885,0,0
0:5:17.907,1362.86,77.1248,0,0.000885,0,0
0:5:19.493,1370.14,77.5315,0,0.000885,0,0
0:5:21.101,1376.77,77.9108,0,0.000885,0,0
0:5:22.715,1384.22,78.3313,0,0.000885,0,0
0:5:24.300,1390.74,78.6968,0,0.000885,0,0
0:5:25.898,1398.31,79.1311,0,0.000885,0,0
0:5:27.514,1404.71,79.4897,0,0.000885,0,0
0:5:29.114,1412.46,79.9309,0,0.000885,0,0
0:5:30.700,1419.09,80.3032,0,0.000885,0,0
0:5:32.316,1426.61,80.7307,0,0.000885,0,0
0:5:33.907,1433.83,81.1375,0,0.000885,0,0
0:5:35.503,1440.4,81.5098,0,0.000885,0,0
0:5:37.122,1447.21,81.8959,0,0.000885,0,0
0:5:38.715,1454.31,82.2958,0,0.000885,0,0
0:5:40.313,1461.89,82.7233,0,0.000885,0,0
0:5:41.918,1468.4,83.0956,0,0.000885,0,0
0:5:43.513,1476.03,83.5231,0,0.000885,0,0
0:5:45.100,1483.33,83.9368,0,0.000885,0,0
0:5:46.709,1486.68,84.1298,0,0.000885,0,0
0:5:48.313,1496.28,84.6745,0,0.000885,0,0
0:5:49.910,1505.17,85.1778,0,0.000885,0,0
0:5:51.511,1511.83,85.5501,0,0.000885,0,0
0:5:53.111,1518.83,85.95,0,0.000885,0,0
0:5:54.698,1525.54,86.3293,0,0.000885,0,0
0:5:56.301,1532.91,86.7429,0,0.000885,0,0
0:5:57.909,1539.62,87.1222,0,0.000885,0,0
0:5:59.496,1546.27,87.5014,0,0.000885,0,0
0:6:1.105,1553.51,87.9082,0,0.000885,0,0
0:6:2.721,1560.4,88.3012,0,0.000885,0,0
0:6:4.311,1567.18,88.6873,0,0.000885,0,0
0:6:5.897,1574.77,89.1147,0,0.000885,0,0
0:6:7.510,1581.96,89.5215,0,0.000885,0,0
0:6:9.103,1589.79,89.9628,0,0.000885,0,0
0:6:10.711,1595.67,90.2937,0,0.000885,0,0
0:6:12.322,1602.39,90.6798,0,0.000885,0,0
0:6:13.913,1610.45,91.1349,0,0.000885,0,0
0:6:15.500,1617.23,91.5141,0,0.000885,0,0
0:6:17.110,1624.58,91.9347,0,0.000885,0,0
0:6:18.714,1610.16,91.1142,0,0.000885,0,0
0:6:20.305,1594.14,90.211,0,0.000885,0,0
0:6:21.406,1312.55,74.2772,0,0.000885,0,0