File: DataFile2021-06-24_044452.csv
Test ID:,Date Tested:,Time:,Test Type:,Diameter Avg. (mm):,Cyl. Corr. Factor:,Height (mm):,Age (days):,Weight (kN):,Break Type:,Ramp Rate (MPa/s):,Load at Break (kN):,Stress at Break (MPa):
12,6/24/2021,04:44,Cylinder,150,1,300,0,3.6,Invalid/No Break,0.25,1157,65.47
Sample Time,Load (kN),Stress (MPa),Long. Strain,Trans. Strain,Chan1 Deflection (mm),Chan2 Deflection (mm)
0:0:25.879,6.62785,0.372317,0,0.000885,0,0
0:0:27.068,15.1907,0.861845,0,0.000885,0,0
0:0:28.261,15.5999,0.882529,0,0.000885,0,0
0:0:29.452,19.59,1.11006,0,0.000885,0,0
0:0:30.644,26.6271,1.50995,0,0.000885,0,0
0:0:31.851,32.3742,1.83401,0,0.000885,0,0
0:0:33.064,38.0634,2.15116,0,0.000885,0,0
0:0:34.258,42.227,2.39248,0,0.000885,0,0
0:0:35.455,47.9741,2.71653,0,0.000885,0,0
0:0:36.662,54.0192,3.05438,0,0.000885,0,0
0:0:37.870,58.9434,3.33706,0,0.000885,0,0
0:0:39.065,63.4583,3.59217,0,0.000885,0,0
0:0:40.258,68.854,3.89554,0,0.000885,0,0
0:0:41.466,74.7791,4.23338,0,0.000885,0,0
0:0:42.675,79.4141,4.49538,0,0.000885,0,0
0:0:43.867,84.8676,4.80565,0,0.000885,0,0
0:0:45.064,90.5569,5.1228,0,0.000885,0,0
0:0:46.261,96.0104,5.43307,0,0.000885,0,0
0:0:47.475,100.877,5.70886,0,0.000885,0,0
0:0:48.675,106.566,6.03291,0,0.000885,0,0
0:0:49.868,111.788,6.32249,0,0.000885,0,0
0:0:51.060,116.303,6.58449,0,0.000885,0,0
0:0:52.277,122.228,6.91544,0,0.000885,0,0
0:0:53.481,127.624,7.21881,0,0.000885,0,0
0:0:54.673,132.784,7.51529,0,0.000885,0,0
0:0:55.870,138.064,7.81176,0,0.000885,0,0
0:0:57.076,143.989,8.1496,0,0.000885,0,0
0:0:58.281,148.62,8.4116,0,0.000885,0,0
0:0:59.478,153.49,8.68739,0,0.000885,0,0
0:1:0.674,159.117,9.00455,0,0.000885,0,0
0:1:1.882,164.749,9.32171,0,0.000885,0,0
0:1:3.089,169.793,9.61129,0,0.000885,0,0
0:1:4.283,175.189,9.91466,0,0.000885,0,0
0:1:5.477,180.82,10.2318,0,0.000885,0,0
0:1:6.684,186.509,10.5559,0,0.000885,0,0
0:1:7.894,191.434,10.8317,0,0.000885,0,0
0:1:9.079,196.011,11.0937,0,0.000885,0,0
0:1:10.269,201.7,11.4108,0,0.000885,0,0
0:1:11.458,206.918,11.7073,0,0.000885,0,0
0:1:12.666,212.785,12.0382,0,0.000885,0,0
0:1:13.854,217.767,12.3209,0,0.000885,0,0
0:1:15.041,222.402,12.5829,0,0.000885,0,0
0:1:16.230,228.207,12.9139,0,0.000885,0,0
0:1:17.436,233.136,13.1897,0,0.000885,0,0
0:1:18.626,238.709,13.5068,0,0.000885,0,0
0:1:19.816,243.985,13.8102,0,0.000885,0,0
0:1:21.012,249.501,14.1205,0,0.000885,0,0
0:1:22.216,254.189,14.3825,0,0.000885,0,0
0:1:23.416,259.233,14.672,0,0.000885,0,0
0:1:24.614,264.278,14.9547,0,0.000885,0,0
0:1:25.825,269.909,15.2719,0,0.000885,0,0
0:1:27.024,275.776,15.6028,0,0.000885,0,0
0:1:28.227,281.403,15.9269,0,0.000885,0,0
0:1:29.414,286.216,16.1958,0,0.000885,0,0
0:1:30.607,291.376,16.4854,0,0.000885,0,0
0:1:31.818,297.181,16.8163,0,0.000885,0,0
0:1:33.013,302.226,17.1059,0,0.000885,0,0
0:1:34.208,306.803,17.361,0,0.000885,0,0
0:1:35.411,312.256,17.6713,0,0.000885,0,0
0:1:36.620,318.47,18.0229,0,0.000885,0,0
0:1:37.819,323.283,18.2918,0,0.000885,0,0
0:1:39.026,328.617,18.5952,0,0.000885,0,0
0:1:40.211,334.013,18.8985,0,0.000885,0,0
0:1:41.401,338.883,19.1743,0,0.000885,0,0
0:1:42.606,344.221,19.4777,0,0.000885,0,0
0:1:43.805,349.91,19.8017,0,0.000885,0,0
0:1:44.990,354.892,20.0844,0,0.000885,0,0
0:1:46.183,360.408,20.3947,0,0.000885,0,0
0:1:47.387,365.684,20.6912,0,0.000885,0,0
0:1:48.574,370.964,20.9945,0,0.000885,0,0
0:1:49.756,376.008,21.2772,0,0.000885,0,0
0:1:50.944,381.23,21.5737,0,0.000885,0,0
0:1:52.152,386.857,21.8909,0,0.000885,0,0
0:1:53.341,392.08,22.1873,0,0.000885,0,0
0:1:54.529,397.066,22.47,0,0.000885,0,0
0:1:55.714,401.812,22.7389,0,0.000885,0,0
0:1:56.912,407.915,23.0836,0,0.000885,0,0
0:1:58.117,413.547,23.4008,0,0.000885,0,0
0:1:59.306,418.587,23.6904,0,0.000885,0,0
0:2:0.527,423.337,23.9593,0,0.000885,0,0
0:2:1.726,428.675,24.2558,0,0.000885,0,0
0:2:2.929,433.897,24.5522,0,0.000885,0,0
0:2:4.130,439.409,24.8625,0,0.000885,0,0
0:2:5.316,445.334,25.2003,0,0.000885,0,0
0:2:6.524,450.32,25.483,0,0.000885,0,0
0:2:7.721,455.244,25.7588,0,0.000885,0,0
0:2:8.916,460.934,26.0829,0,0.000885,0,0
0:2:10.115,466.036,26.3724,0,0.000885,0,0
0:2:11.312,471.258,26.6689,0,0.000885,0,0
0:2:12.517,476.124,26.9447,0,0.000885,0,0
0:2:13.728,481.991,27.2757,0,0.000885,0,0
0:2:14.931,487.209,27.5721,0,0.000885,0,0
0:2:16.115,492.899,27.8893,0,0.000885,0,0
0:2:17.321,498.236,28.1927,0,0.000885,0,0
0:2:18.520,502.871,28.4547,0,0.000885,0,0
0:2:19.729,508.383,28.7718,0,0.000885,0,0
0:2:20.937,514.014,29.089,0,0.000885,0,0
0:2:22.141,519.704,29.4061,0,0.000885,0,0
0:2:23.332,524.334,29.6681,0,0.000885,0,0
0:2:24.537,529.556,29.9646,0,0.000885,0,0
0:2:25.733,534.658,30.2542,0,0.000885,0,0
0:2:26.941,540.583,30.592,0,0.000885,0,0
0:2:28.131,545.743,30.8816,0,0.000885,0,0
0:2:29.338,550.903,31.1781,0,0.000885,0,0
0:2:30.536,556.477,31.4884,0,0.000885,0,0
0:2:31.737,561.05,31.7504,0,0.000885,0,0
0:2:32.934,566.797,32.0744,0,0.000885,0,0
0:2:34.131,571.783,32.3571,0,0.000885,0,0
0:2:35.312,577.53,32.6811,0,0.000885,0,0
0:2:36.512,582.575,32.9638,0,0.000885,0,0
0:2:37.711,588.442,33.3017,0,0.000885,0,0
0:2:38.900,592.899,33.5499,0,0.000885,0,0
0:2:40.092,598.126,33.8464,0,0.000885,0,0
0:2:41.285,603.526,34.1497,0,0.000885,0,0
0:2:42.497,608.984,34.46,0,0.000885,0,0
0:2:43.695,614.033,34.7496,0,0.000885,0,0
0:2:44.883,619.962,35.0805,0,0.000885,0,0
0:2:46.076,623.779,35.3012,0,0.000885,0,0
0:2:47.287,629.766,35.639,0,0.000885,0,0
0:2:48.483,635.046,35.9355,0,0.000885,0,0
0:2:49.675,640.095,36.2251,0,0.000885,0,0
0:2:50.870,645.731,36.5422,0,0.000885,0,0
0:2:52.083,650.366,36.8042,0,0.000885,0,0
0:2:53.281,656.001,37.1214,0,0.000885,0,0
0:2:54.473,660.227,37.3627,0,0.000885,0,0
0:2:55.661,665.334,37.6523,0,0.000885,0,0
0:2:56.873,670.734,37.9556,0,0.000885,0,0
0:2:58.073,678.131,38.3762,0,0.000885,0,0
0:2:59.263,684.942,38.7623,0,0.000885,0,0
0:3:0.460,690.987,39.1002,0,0.000885,0,0
0:3:1.664,695.448,39.3553,0,0.000885,0,0
0:3:2.864,699.616,39.5897,0,0.000885,0,0
0:3:4.058,704.314,39.8586,0,0.000885,0,0
0:3:5.245,709.714,40.162,0,0.000885,0,0
0:3:6.451,715.287,40.4791,0,0.000885,0,0
0:3:7.657,720.278,40.7618,0,0.000885,0,0
0:3:8.846,725.149,41.0376,0,0.000885,0,0
0:3:10.039,731.194,41.3754,0,0.000885,0,0
0:3:11.243,736.243,41.665,0,0.000885,0,0
0:3:12.455,740.825,41.9201,0,0.000885,0,0
0:3:13.649,746.456,42.2442,0,0.000885,0,0
0:3:14.837,751.211,42.5131,0,0.000885,0,0
0:3:16.039,757.319,42.8578,0,0.000885,0,0
0:3:17.252,762.892,43.1681,0,0.000885,0,0
0:3:18.448,768.528,43.4921,0,0.000885,0,0
0:3:19.642,773.283,43.761,0,0.000885,0,0
0:3:20.844,778.096,44.0299,0,0.000885,0,0
0:3:22.057,783.323,44.3264,0,0.000885,0,0
0:3:23.251,788.545,44.6229,0,0.000885,0,0
0:3:24.444,793.83,44.9193,0,0.000885,0,0
0:3:25.640,800.168,45.2779,0,0.000885,0,0
0:3:26.852,805.684,45.595,0,0.000885,0,0
0:3:28.053,810.559,45.8708,0,0.000885,0,0
0:3:29.238,815.43,46.1466,0,0.000885,0,0
0:3:30.440,820.479,46.4293,0,0.000885,0,0
0:3:31.655,826.173,46.7533,0,0.000885,0,0
0:3:32.855,831.101,47.0291,0,0.000885,0,0
0:3:34.048,836.795,47.3532,0,0.000885,0,0
0:3:35.242,842.137,47.6566,0,0.000885,0,0
0:3:36.447,846.835,47.9186,0,0.000885,0,0
0:3:37.658,852.471,48.2426,0,0.000885,0,0
0:3:38.851,858.396,48.5736,0,0.000885,0,0
0:3:40.039,862.684,48.8149,0,0.000885,0,0
0:3:41.240,868.32,49.1389,0,0.000885,0,0
0:3:42.452,873.835,49.4492,0,0.000885,0,0
0:3:43.639,879,49.7388,0,0.000885,0,0
0:3:44.839,884.751,50.0697,0,0.000885,0,0
0:3:46.044,889.92,50.3593,0,0.000885,0,0
0:3:47.256,895.672,50.6834,0,0.000885,0,0
0:3:48.447,901.13,50.9936,0,0.000885,0,0
0:3:49.640,905.062,51.2143,0,0.000885,0,0
0:3:50.846,910.231,51.5107,0,0.000885,0,0
0:3:52.058,916.156,51.8417,0,0.000885,0,0
0:3:53.260,921.031,52.1175,0,0.000885,0,0
0:3:54.446,926.547,52.4346,0,0.000885,0,0
0:3:55.639,932.476,52.7656,0,0.000885,0,0
0:3:56.850,937.583,53.0552,0,0.000885,0,0
0:3:58.044,942.102,53.3103,0,0.000885,0,0
0:3:59.246,948.032,53.6481,0,0.000885,0,0
0:4:0.440,953.138,53.9377,0,0.000885,0,0
0:4:1.654,958.654,54.248,0,0.000885,0,0
0:4:2.855,964.232,54.5651,0,0.000885,0,0
0:4:4.048,969.454,54.8616,0,0.000885,0,0
0:4:5.236,974.739,55.1581,0,0.000885,0,0
0:4:6.448,979.316,55.4201,0,0.000885,0,0
0:4:7.659,985.89,55.7924,0,0.000885,0,0
0:4:8.848,990.001,56.0199,0,0.000885,0,0
0:4:10.049,995.401,56.3302,0,0.000885,0,0
0:4:11.253,1000.98,56.6404,0,0.000885,0,0
0:4:12.455,1004.32,56.8335,0,0.000885,0,0
0:4:13.644,1011.31,57.2265,0,0.000885,0,0
0:4:14.848,1017.47,57.5781,0,0.000885,0,0
0:4:16.040,1022.34,57.8539,0,0.000885,0,0
0:4:17.253,1028.04,58.178,0,0.000885,0,0
0:4:18.448,1033.67,58.4951,0,0.000885,0,0
0:4:19.644,1038.37,58.7571,0,0.000885,0,0
0:4:20.845,1043.59,59.0536,0,0.000885,0,0
0:4:22.058,1048.94,59.357,0,0.000885,0,0
0:4:23.252,1053.57,59.619,0,0.000885,0,0
0:4:24.443,1059.56,59.9568,0,0.000885,0,0
0:4:25.646,1064.96,60.2671,0,0.000885,0,0
0:4:26.859,1069.83,60.5429,0,0.000885,0,0
0:4:28.060,1074.47,60.8049,0,0.000885,0,0
0:4:29.254,1080.58,61.1496,0,0.000885,0,0
0:4:30.443,1086.15,61.4668,0,0.000885,0,0
0:4:31.662,1091.02,61.7426,0,0.000885,0,0
0:4:32.863,1096.54,62.0528,0,0.000885,0,0
0:4:34.050,1099.71,62.2321,0,0.000885,0,0
0:4:35.249,1107.22,62.6527,0,0.000885,0,0
0:4:36.450,1111.04,62.8733,0,0.000885,0,0
0:4:37.656,1116.56,63.1836,0,0.000885,0,0
0:4:38.845,1123.37,63.5697,0,0.000885,0,0
0:4:40.049,1129.47,63.9144,0,0.000885,0,0
0:4:41.254,1135.52,64.2591,0,0.000885,0,0
0:4:42.464,1139.98,64.5073,0,0.000885,0,0
0:4:43.659,1145.03,64.7969,0,0.000885,0,0
0:4:44.848,1149.37,65.0382,0,0.000885,0,0
0:4:46.048,1154.54,65.3347,0,0.000885,0,0
0:4:47.259,1157,65.4726,0,0.000885,0,0
0:4:48.453,1113.62,63.0181,0,0.000885,0,0
0:4:49.648,1110.57,62.8457,0,0.000885,0,0
0:4:50.847,1115.85,63.1422,0,0.000885,0,0
0:4:52.055,1122.49,63.5214,0,0.000885,0,0
0:4:53.248,924.727,52.3312,0,0.000885,0,0
0:4:54.448,916.685,51.8762,0,0.000885,0,0
0:4:55.645,912.05,51.6142,0,0.000885,0,0
0:4:56.859,904.946,51.2074,0,0.000885,0,0
0:4:58.057,893.617,50.5661,0,0.000885,0,0
0:4:59.240,876.126,49.5802,0,0.000885,0,0
0:5:0.449,822.534,46.5465,0,0.000885,0,0
0:5:0.679,818.66,46.3259,0,0.000885,0,0