File: DataFile2021-06-06_020640.txt
Test ID:	Date Tested:	Time:	Test Type:	Diameter Avg. (mm):	Cyl. Corr. Factor:	Height (mm):	Age (days):	Weight (kN):	Break Type:	Ramp Rate (MPa/s):	Load at Break (kN):	Stress at Break (MPa):
12	6/6/2021	2:06	Cylinder	150	1	300	0	13.39	Invalid/No Break	0.25	1625.29	91.97
Column1	Sample Time	Load (kN)	Stress (MPa)	Long. Strain	Trans. Strain	Chan1 Deflection (mm)	Chan2 Deflection (mm)
1.00	00:14.1	60.0599	3.39912	0	0.000885	0	0
7.00	00:15.6	67.2126	3.80591	0	0.000885	0	0
3.00	00:17.2	74.8947	4.24028	0	0.000885	0	0
9.00	00:18.8	80.5262	4.55743	0	0.000885	0	0
5.00	00:20.4	88.3862	4.9987	0	0.000885	0	0
1.00	00:22.0	95.6012	5.41238	0	0.000885	0	0
7.00	00:23.6	102.874	5.81918	0	0.000885	0	0
3.00	00:25.3	109.444	6.19149	0	0.000885	0	0
9.00	00:26.8	117.126	6.62586	0	0.000885	0	0
5.00	00:28.4	123.692	6.99818	0	0.000885	0	0
1.00	00:30.0	130.146	7.3636	0	0.000885	0	0
7.00	00:31.6	138.064	7.81176	0	0.000885	0	0
3.00	00:33.2	144.514	8.17718	0	0.000885	0	0
9.00	00:34.8	152.138	8.61155	0	0.000885	0	0
5.00	00:36.5	159.589	9.03213	0	0.000885	0	0
1.00	00:38.0	166.159	9.40445	0	0.000885	0	0
7.00	00:39.6	173.076	9.79745	0	0.000885	0	0
3.00	00:41.3	180.291	10.2042	0	0.000885	0	0
9.00	00:42.9	187.328	10.6041	0	0.000885	0	0
5.00	00:44.4	194.485	11.004	0	0.000885	0	0
1.00	00:46.0	201.758	11.4177	0	0.000885	0	0
7.00	00:47.6	208.386	11.79	0	0.000885	0	0
3.00	00:49.2	215.365	12.1899	0	0.000885	0	0
9.00	00:50.8	222.874	12.6105	0	0.000885	0	0
5.00	00:52.4	229.675	12.9966	0	0.000885	0	0
1.00	00:54.0	236.419	13.3758	0	0.000885	0	0
7.00	00:55.6	243.576	13.7826	0	0.000885	0	0
3.00	00:57.2	250.613	14.1825	0	0.000885	0	0
9.00	00:58.8	258.001	14.6031	0	0.000885	0	0
5.00	01:00.4	265.158	15.003	0	0.000885	0	0
1.00	01:02.0	271.671	15.3753	0	0.000885	0	0
7.00	01:03.6	278.708	15.7683	0	0.000885	0	0
3.00	01:05.2	285.803	16.1751	0	0.000885	0	0
9.00	01:06.8	293.898	16.6302	0	0.000885	0	0
5.00	01:08.4	300.758	17.0163	0	0.000885	0	0
1.00	01:10.0	307.563	17.4024	0	0.000885	0	0
7.00	01:11.6	314.427	17.7954	0	0.000885	0	0
3.00	01:13.2	321.113	18.1746	0	0.000885	0	0
9.00	01:14.8	328.034	18.5607	0	0.000885	0	0
5.00	01:16.4	335.187	18.9675	0	0.000885	0	0
1.00	01:18.0	342.695	19.395	0	0.000885	0	0
7.00	01:19.6	348.972	19.7466	0	0.000885	0	0
3.00	01:21.2	355.893	20.1396	0	0.000885	0	0
9.00	01:22.7	364.22	20.6084	0	0.000885	0	0
5.00	01:24.3	370.377	20.9601	0	0.000885	0	0
1.00	01:25.9	376.947	21.3324	0	0.000885	0	0
7.00	01:27.5	384.513	21.7599	0	0.000885	0	0
3.00	01:29.1	391.608	22.1597	0	0.000885	0	0
9.00	01:30.7	398.356	22.539	0	0.000885	0	0
5.00	01:32.3	406.447	23.0009	0	0.000885	0	0
1.00	01:33.9	412.43	23.3388	0	0.000885	0	0
7.00	01:35.5	420.112	23.7731	0	0.000885	0	0
3.00	01:37.1	427.034	24.1661	0	0.000885	0	0
9.00	01:38.7	434.364	24.5798	0	0.000885	0	0
5.00	01:40.3	440.525	24.9314	0	0.000885	0	0
1.00	01:41.9	448.029	25.352	0	0.000885	0	0
7.00	01:43.5	454.484	25.7174	0	0.000885	0	0
3.00	01:45.0	462.224	26.1587	0	0.000885	0	0
9.00	01:46.6	469.261	26.5517	0	0.000885	0	0
5.00	01:48.2	475.595	26.9102	0	0.000885	0	0
1.00	01:49.8	482.516	27.3032	0	0.000885	0	0
7.00	01:51.4	490.434	27.7514	0	0.000885	0	0
3.00	01:53.0	497.707	28.1651	0	0.000885	0	0
9.00	01:54.6	503.69	28.5029	0	0.000885	0	0
5.00	01:56.2	511.314	28.9373	0	0.000885	0	0
1.00	01:57.8	519.174	29.3786	0	0.000885	0	0
7.00	01:59.4	525.918	29.7578	0	0.000885	0	0
3.00	02:01.0	532.666	30.1439	0	0.000885	0	0
9.00	02:02.6	539.583	30.5369	0	0.000885	0	0
5.00	02:04.2	546.74	30.9368	0	0.000885	0	0
1.00	02:05.8	553.719	31.3367	0	0.000885	0	0
7.00	02:07.4	560.463	31.7159	0	0.000885	0	0
3.00	02:08.9	566.681	32.0675	0	0.000885	0	0
9.00	02:10.5	574.248	32.495	0	0.000885	0	0
5.00	02:12.1	582.223	32.95	0	0.000885	0	0
1.00	02:13.7	589.203	33.343	0	0.000885	0	0
7.00	02:15.3	595.074	33.674	0	0.000885	0	0
3.00	02:16.9	602.525	34.0946	0	0.000885	0	0
9.00	02:18.5	609.865	34.5083	0	0.000885	0	0
5.00	02:20.1	617.435	34.9426	0	0.000885	0	0
1.00	02:21.7	624.361	35.3287	0	0.000885	0	0
7.00	02:23.3	630.704	35.6873	0	0.000885	0	0
3.00	02:24.9	637.688	36.0872	0	0.000885	0	0
9.00	02:26.5	645.673	36.5353	0	0.000885	0	0
5.00	02:28.1	652.421	36.9214	0	0.000885	0	0
1.00	02:29.7	660.112	37.3558	0	0.000885	0	0
7.00	02:31.3	666.215	37.7005	0	0.000885	0	0
3.00	02:32.9	673.14	38.0935	0	0.000885	0	0
9.00	02:34.5	680.654	38.5141	0	0.000885	0	0
5.00	02:36.1	687.464	38.9002	0	0.000885	0	0
1.00	02:37.7	694.158	39.2794	0	0.000885	0	0
7.00	02:39.3	701.609	39.7	0	0.000885	0	0
3.00	02:40.9	709.887	40.1689	0	0.000885	0	0
9.00	02:42.5	716.168	40.5274	0	0.000885	0	0
5.00	02:44.1	722.627	40.8928	0	0.000885	0	0
1.00	02:45.7	729.904	41.3065	0	0.000885	0	0
7.00	02:47.3	737.244	41.7202	0	0.000885	0	0
3.00	02:48.9	743.876	42.0925	0	0.000885	0	0
9.00	02:50.5	751.038	42.4993	0	0.000885	0	0
5.00	02:52.1	757.728	42.8785	0	0.000885	0	0
1.00	02:53.7	765.183	43.2991	0	0.000885	0	0
7.00	02:55.3	772.518	43.7128	0	0.000885	0	0
3.00	02:56.9	778.977	44.0782	0	0.000885	0	0
9.00	02:58.5	786.254	44.4919	0	0.000885	0	0
5.00	03:00.1	793.71	44.9124	0	0.000885	0	0
1.00	03:01.7	800.929	45.3261	0	0.000885	0	0
7.00	03:03.2	807.446	45.6916	0	0.000885	0	0
3.00	03:04.8	814.785	46.1052	0	0.000885	0	0
9.00	03:06.4	821.182	46.4707	0	0.000885	0	0
5.00	03:08.0	828.637	46.8912	0	0.000885	0	0
1.00	03:09.6	835.914	47.3049	0	0.000885	0	0
7.00	03:11.2	843.254	47.7186	0	0.000885	0	0
3.00	03:12.8	850.238	48.1116	0	0.000885	0	0
9.00	03:14.4	857.163	48.5046	0	0.000885	0	0
5.00	03:16.0	863.386	48.8563	0	0.000885	0	0
1.00	03:17.6	871.251	49.3044	0	0.000885	0	0
7.00	03:19.2	878.297	49.7043	0	0.000885	0	0
3.00	03:20.8	885.516	50.1111	0	0.000885	0	0
9.00	03:22.4	891.855	50.4696	0	0.000885	0	0
5.00	03:24.0	899.426	50.8971	0	0.000885	0	0
1.00	03:25.6	906.766	51.3108	0	0.000885	0	0
7.00	03:27.2	913.513	51.6969	0	0.000885	0	0
3.00	03:28.8	920.266	52.0761	0	0.000885	0	0
9.00	03:30.4	927.307	52.476	0	0.000885	0	0
5.00	03:32.0	935.176	52.9173	0	0.000885	0	0
1.00	03:33.6	940.928	53.2482	0	0.000885	0	0
7.00	03:35.2	948.677	53.6826	0	0.000885	0	0
3.00	03:36.8	955.954	54.0963	0	0.000885	0	0
9.00	03:38.4	963.058	54.4962	0	0.000885	0	0
5.00	03:40.0	970.629	54.9236	0	0.000885	0	0
1.00	03:41.6	976.91	55.2822	0	0.000885	0	0
7.00	03:43.2	984.249	55.6958	0	0.000885	0	0
3.00	03:44.8	991.526	56.1095	0	0.000885	0	0
9.00	03:46.4	998.159	56.4819	0	0.000885	0	0
5.00	03:48.0	1005.38	56.8955	0	0.000885	0	0
1.00	03:49.6	1012.78	57.3092	0	0.000885	0	0
7.00	03:51.2	1019.7	57.7022	0	0.000885	0	0
3.00	03:52.8	1026.33	58.0814	0	0.000885	0	0
9.00	03:54.4	1033.85	58.502	0	0.000885	0	0
5.00	03:56.0	1040.54	58.8812	0	0.000885	0	0
1.00	03:57.6	1048.05	59.3087	0	0.000885	0	0
7.00	03:59.2	1055.57	59.7362	0	0.000885	0	0
3.00	04:00.8	1061.67	60.0809	0	0.000885	0	0
9.00	04:02.4	1068.83	60.4808	0	0.000885	0	0
5.00	04:04.0	1076.17	60.9014	0	0.000885	0	0
1.00	04:05.6	1082.51	61.2599	0	0.000885	0	0
7.00	04:07.2	1090.79	61.7288	0	0.000885	0	0
3.00	04:08.8	1097.77	62.1218	0	0.000885	0	0
9.00	04:10.4	1104.4	62.4941	0	0.000885	0	0
5.00	04:12.0	1111.09	62.8733	0	0.000885	0	0
1.00	04:13.6	1119.55	63.3559	0	0.000885	0	0
7.00	04:15.2	1126.06	63.7213	0	0.000885	0	0
3.00	04:16.8	1132.87	64.1075	0	0.000885	0	0
9.00	04:18.4	1140.03	64.5142	0	0.000885	0	0
5.00	04:20.0	1146.72	64.8935	0	0.000885	0	0
1.00	04:21.6	1153.66	65.2865	0	0.000885	0	0
7.00	04:23.2	1160.7	65.6795	0	0.000885	0	0
3.00	04:24.8	1168.33	66.1138	0	0.000885	0	0
9.00	04:26.4	1175.61	66.5275	0	0.000885	0	0
5.00	04:28.0	1181.3	66.8447	0	0.000885	0	0
1.00	04:29.6	1189.29	67.2997	0	0.000885	0	0
7.00	04:31.2	1196.15	67.6858	0	0.000885	0	0
3.00	04:32.8	1203.37	68.0995	0	0.000885	0	0
9.00	04:34.4	1210.65	68.5063	0	0.000885	0	0
5.00	04:36.0	1218.4	68.9476	0	0.000885	0	0
1.00	04:37.6	1223.91	69.2578	0	0.000885	0	0
7.00	04:39.2	1230.96	69.6577	0	0.000885	0	0
3.00	04:40.8	1238.71	70.099	0	0.000885	0	0
9.00	04:42.4	1245.81	70.4989	0	0.000885	0	0
5.00	04:44.0	1252.74	70.8919	0	0.000885	0	0
1.00	04:45.6	1260.31	71.3194	0	0.000885	0	0
7.00	04:47.2	1266.53	71.671	0	0.000885	0	0
3.00	04:48.8	1274.1	72.0985	0	0.000885	0	0
9.00	04:50.4	1280.62	72.4708	0	0.000885	0	0
5.00	04:52.0	1288.08	72.8914	0	0.000885	0	0
1.00	04:53.6	1295.65	73.3188	0	0.000885	0	0
7.00	04:55.2	1303.16	73.7463	0	0.000885	0	0
3.00	04:56.8	1309.5	74.1049	0	0.000885	0	0
9.00	04:58.4	1316.72	74.5116	0	0.000885	0	0
5.00	05:00.0	1323.59	74.8977	0	0.000885	0	0
1.00	05:01.6	1330.1	75.2701	0	0.000885	0	0
7.00	05:03.2	1338.91	75.7665	0	0.000885	0	0
3.00	05:04.8	1343.66	76.0354	0	0.000885	0	0
9.00	05:06.4	1352.17	76.518	0	0.000885	0	0
5.00	05:08.0	1358.75	76.8903	0	0.000885	0	0
1.00	05:09.6	1365.97	77.2971	0	0.000885	0	0
7.00	05:11.2	1373.42	77.7177	0	0.000885	0	0
3.00	05:12.8	1380.59	78.1245	0	0.000885	0	0
9.00	05:14.4	1387.22	78.5037	0	0.000885	0	0
5.00	05:16.1	1395.02	78.945	0	0.000885	0	0
1.00	05:17.6	1400.6	79.2552	0	0.000885	0	0
7.00	05:19.2	1408.35	79.6965	0	0.000885	0	0
3.00	05:20.8	1415.34	80.0895	0	0.000885	0	0
9.00	05:22.4	1422.44	80.4963	0	0.000885	0	0
5.00	05:24.0	1428.89	80.8617	0	0.000885	0	0
1.00	05:25.6	1436.53	81.2892	0	0.000885	0	0
7.00	05:27.2	1443.75	81.696	0	0.000885	0	0
3.00	05:28.8	1450.67	82.089	0	0.000885	0	0
9.00	05:30.5	1458.13	82.5165	0	0.000885	0	0
5.00	05:32.0	1465	82.9026	0	0.000885	0	0
1.00	05:33.6	1471.98	83.2956	0	0.000885	0	0
7.00	05:35.3	1478.32	83.6541	0	0.000885	0	0
3.00	05:36.8	1485.27	84.0471	0	0.000885	0	0
9.00	05:38.4	1493.33	84.5021	0	0.000885	0	0
5.00	05:40.0	1500.57	84.9158	0	0.000885	0	0
1.00	05:41.6	1507.52	85.3088	0	0.000885	0	0
7.00	05:43.2	1514.47	85.7018	0	0.000885	0	0
3.00	05:44.8	1520.65	86.0535	0	0.000885	0	0
9.00	05:46.4	1528.48	86.4947	0	0.000885	0	0
5.00	05:48.0	1535.31	86.8808	0	0.000885	0	0
1.00	05:49.6	1543.03	87.3152	0	0.000885	0	0
7.00	05:51.3	1549.27	87.6737	0	0.000885	0	0
3.00	05:52.8	1555.1	87.9978	0	0.000885	0	0
9.00	05:54.4	1565.23	88.5769	0	0.000885	0	0
5.00	05:56.1	1571.47	88.9286	0	0.000885	0	0
1.00	05:57.6	1577.3	89.2595	0	0.000885	0	0
7.00	05:59.2	1585.19	89.7008	0	0.000885	0	0
3.00	06:00.9	1590.49	90.0042	0	0.000885	0	0
9.00	06:02.4	1599.26	90.5006	0	0.000885	0	0
5.00	06:04.0	1606.68	90.9212	0	0.000885	0	0
1.00	06:05.7	1612.86	91.2728	0	0.000885	0	0
7.00	06:07.2	1621.05	91.7347	0	0.000885	0	0
3.00	06:08.8	1619.46	91.6451	0	0.000885	0	0
7.00	06:10.2	1576.24	89.1975	0	0.000885	0	0