File: DataFile2021-06-08_065418.csv
Test ID:,Date Tested:,Time:,Test Type:,Diameter Avg. (mm):,Cyl. Corr. Factor:,Height (mm):,Age (days):,Weight (kN):,Break Type:,Ramp Rate (MPa/s):,Load at Break (kN):,Stress at Break (MPa):
12,6/8/2021,06:47,Cylinder,100,1,200,0,3.6,3,0,0,0
Sample Time,Load (kN),Stress (MPa),Long. Strain,Trans. Strain,Chan1 Deflection (mm),Chan2 Deflection (mm)
0:0:13.170,6.15634,0.786002,0,0.000885,0,0
0:0:13.967,8.85641,1.13074,0,0.000885,0,0
0:0:14.757,8.15359,1.04111,0,0.000885,0,0
0:0:15.555,10.44,1.33069,0,0.000885,0,0
0:0:16.344,10.6757,1.35827,0,0.000885,0,0
0:0:17.153,13.3135,1.69611,0,0.000885,0,0
0:0:17.958,13.9007,1.77195,0,0.000885,0,0
0:0:18.758,15.72,1.99948,0,0.000885,0,0
0:0:19.567,17.7128,2.25459,0,0.000885,0,0
0:0:20.369,19.5321,2.48901,0,0.000885,0,0
0:0:21.169,21.1735,2.69585,0,0.000885,0,0
0:0:21.965,22.3479,2.84753,0,0.000885,0,0
0:0:22.761,24.1627,3.07506,0,0.000885,0,0
0:0:23.557,25.9242,3.30259,0,0.000885,0,0
0:0:24.366,27.3877,3.48875,0,0.000885,0,0
0:0:25.173,28.9713,3.6887,0,0.000885,0,0
0:0:25.968,30.2034,3.84727,0,0.000885,0,0
0:0:26.765,32.3742,4.12306,0,0.000885,0,0
0:0:27.560,33.4328,4.25407,0,0.000885,0,0
0:0:28.357,34.9541,4.45401,0,0.000885,0,0
0:0:29.163,36.5377,4.65396,0,0.000885,0,0
0:0:29.971,37.9478,4.83322,0,0.000885,0,0
0:0:30.773,39.5892,5.04007,0,0.000885,0,0
0:0:31.566,41.1727,5.24002,0,0.000885,0,0
0:0:32.365,42.9342,5.46754,0,0.000885,0,0
0:0:33.164,44.3399,5.64681,0,0.000885,0,0
0:0:33.963,46.217,5.88123,0,0.000885,0,0
0:0:34.774,47.6227,6.06049,0,0.000885,0,0
0:0:35.573,49.5576,6.3087,0,0.000885,0,0
0:0:36.373,50.732,6.46039,0,0.000885,0,0
0:0:37.165,52.022,6.62586,0,0.000885,0,0
0:0:37.963,54.1349,6.89476,0,0.000885,0,0
0:0:38.769,55.3092,7.03955,0,0.000885,0,0
0:0:39.575,56.9506,7.25328,0,0.000885,0,0
0:0:40.376,58.6498,7.46702,0,0.000885,0,0
0:0:41.168,60.1177,7.65318,0,0.000885,0,0
0:0:41.970,61.5812,7.83934,0,0.000885,0,0
0:0:42.762,63.6363,8.10134,0,0.000885,0,0
0:0:43.563,65.0419,8.2806,0,0.000885,0,0
0:0:44.374,66.5098,8.46676,0,0.000885,0,0
0:0:45.178,68.3291,8.70118,0,0.000885,0,0
0:0:45.976,70.0862,8.92182,0,0.000885,0,0
0:0:46.769,70.9091,9.02524,0,0.000885,0,0
0:0:47.568,72.1991,9.19071,0,0.000885,0,0
0:0:48.360,74.6056,9.50098,0,0.000885,0,0
0:0:49.170,75.9534,9.67334,0,0.000885,0,0
0:0:49.976,77.0076,9.80434,0,0.000885,0,0
0:0:50.775,79.0004,10.0595,0,0.000885,0,0
0:0:51.572,80.8197,10.287,0,0.000885,0,0
0:0:52.369,81.9362,10.4318,0,0.000885,0,0
0:0:53.163,83.4575,10.6248,0,0.000885,0,0
0:0:53.965,85.3347,10.8661,0,0.000885,0,0
0:0:54.776,87.3898,11.1281,0,0.000885,0,0
0:0:55.573,88.6219,11.2867,0,0.000885,0,0
0:0:56.373,90.3211,11.5005,0,0.000885,0,0
0:0:57.163,90.2633,11.4936,0,0.000885,0,0
0:0:57.962,93.3726,11.8866,0,0.000885,0,0
0:0:58.766,95.014,12.1003,0,0.000885,0,0
0:0:59.572,96.6554,12.3071,0,0.000885,0,0
0:1:0.373,97.4783,12.4106,0,0.000885,0,0
0:1:1.167,99.4133,12.6588,0,0.000885,0,0
0:1:1.966,100.819,12.838,0,0.000885,0,0
0:1:2.759,102.171,13.0104,0,0.000885,0,0
0:1:3.558,104.573,13.3138,0,0.000885,0,0
0:1:4.369,105.748,13.4655,0,0.000885,0,0
0:1:5.174,106.86,13.6034,0,0.000885,0,0
0:1:5.966,109.03,13.8791,0,0.000885,0,0
0:1:6.763,110.263,14.0377,0,0.000885,0,0
0:1:7.559,111.962,14.2584,0,0.000885,0,0
0:1:8.351,114.31,14.5548,0,0.000885,0,0
0:1:9.160,114.898,14.6307,0,0.000885,0,0
0:1:9.968,116.481,14.8306,0,0.000885,0,0
0:1:10.767,118.532,15.0926,0,0.000885,0,0
0:1:11.560,120.235,15.3064,0,0.000885,0,0
0:1:12.357,121.174,15.4305,0,0.000885,0,0
0:1:13.160,122.989,15.658,0,0.000885,0,0
0:1:13.970,124.808,15.8924,0,0.000885,0,0
0:1:14.777,126.276,16.0786,0,0.000885,0,0
0:1:15.571,127.74,16.2647,0,0.000885,0,0
0:1:16.369,128.563,16.3682,0,0.000885,0,0
0:1:17.162,131.085,16.6922,0,0.000885,0,0
0:1:17.963,132.259,16.837,0,0.000885,0,0
0:1:18.764,133.607,17.0094,0,0.000885,0,0
0:1:19.573,135.6,17.2645,0,0.000885,0,0
0:1:20.373,136.947,17.4368,0,0.000885,0,0
0:1:21.170,138.825,17.6782,0,0.000885,0,0
0:1:21.966,140.466,17.885,0,0.000885,0,0
0:1:22.761,141.64,18.0367,0,0.000885,0,0
0:1:23.566,143.05,18.2159,0,0.000885,0,0
0:1:24.376,144.634,18.4159,0,0.000885,0,0
0:1:25.185,146.685,18.6779,0,0.000885,0,0
0:1:25.976,148.384,18.8916,0,0.000885,0,0
0:1:26.775,149.852,19.0778,0,0.000885,0,0
0:1:27.569,151.32,19.264,0,0.000885,0,0
0:1:28.366,152.961,19.4777,0,0.000885,0,0
0:1:29.170,153.9,19.5949,0,0.000885,0,0
0:1:29.976,155.657,19.8224,0,0.000885,0,0
0:1:30.778,157.418,20.0431,0,0.000885,0,0
0:1:31.572,159.411,20.2982,0,0.000885,0,0
0:1:32.368,160.585,20.443,0,0.000885,0,0
0:1:33.161,162.284,20.6636,0,0.000885,0,0
0:1:33.971,163.695,20.8429,0,0.000885,0,0
0:1:34.777,165.22,21.0359,0,0.000885,0,0
0:1:35.574,166.742,21.229,0,0.000885,0,0
0:1:36.370,168.681,21.4772,0,0.000885,0,0
0:1:37.167,170.265,21.6771,0,0.000885,0,0
0:1:37.963,171.728,21.8633,0,0.000885,0,0
0:1:38.763,173.721,22.1184,0,0.000885,0,0
0:1:39.573,174.25,22.1873,0,0.000885,0,0
0:1:40.374,175.66,22.3666,0,0.000885,0,0
0:1:41.174,178.298,22.7044,0,0.000885,0,0
0:1:41.966,179.939,22.9113,0,0.000885,0,0
0:1:42.764,181.056,23.0492,0,0.000885,0,0
0:1:43.556,182.871,23.2836,0,0.000885,0,0
0:1:44.368,183.93,23.4215,0,0.000885,0,0
0:1:45.175,186.216,23.7111,0,0.000885,0,0
0:1:45.968,187.154,23.8283,0,0.000885,0,0
0:1:46.768,189.147,24.0834,0,0.000885,0,0
0:1:47.561,190.673,24.2764,0,0.000885,0,0
0:1:48.370,192.021,24.4488,0,0.000885,0,0
0:1:49.176,193.431,24.6281,0,0.000885,0,0
0:1:49.973,195.366,24.8763,0,0.000885,0,0
0:1:50.765,196.598,25.0349,0,0.000885,0,0
0:1:51.562,198.591,25.2831,0,0.000885,0,0
0:1:52.352,199.996,25.4623,0,0.000885,0,0
0:1:53.160,201.931,25.7105,0,0.000885,0,0
0:1:53.965,202.345,25.7657,0,0.000885,0,0
0:1:54.765,204.574,26.0484,0,0.000885,0,0
0:1:55.567,205.979,26.2277,0,0.000885,0,0
0:1:56.367,207.683,26.4414,0,0.000885,0,0
0:1:57.154,209.324,26.6551,0,0.000885,0,0
0:1:57.956,210.499,26.7999,0,0.000885,0,0
0:1:58.753,212.198,27.0206,0,0.000885,0,0
0:1:59.556,214.075,27.255,0,0.000885,0,0
0:2:0.353,215.717,27.4687,0,0.000885,0,0
0:2:1.153,217.242,27.6618,0,0.000885,0,0
0:2:1.954,218.941,27.8755,0,0.000885,0,0
0:2:2.741,220.409,28.0617,0,0.000885,0,0
0:2:3.544,221.757,28.234,0,0.000885,0,0
0:2:4.349,223.519,28.4616,0,0.000885,0,0
0:2:5.148,224.866,28.6339,0,0.000885,0,0
0:2:5.937,226.566,28.8477,0,0.000885,0,0
0:2:6.729,228.385,29.0821,0,0.000885,0,0
0:2:7.520,229.911,29.2751,0,0.000885,0,0
0:2:8.306,231.143,29.4268,0,0.000885,0,0
0:2:9.112,232.606,29.6199,0,0.000885,0,0
0:2:9.914,234.252,29.8267,0,0.000885,0,0
0:2:10.709,236.067,30.0542,0,0.000885,0,0
0:2:11.495,237.299,30.2128,0,0.000885,0,0
0:2:12.287,239.412,30.4817,0,0.000885,0,0
0:2:13.076,240.702,30.6472,0,0.000885,0,0
0:2:13.872,242.05,30.8196,0,0.000885,0,0
0:2:14.676,243.398,30.9919,0,0.000885,0,0
0:2:15.469,245.453,31.2539,0,0.000885,0,0
0:2:16.262,246.801,31.4263,0,0.000885,0,0
0:2:17.055,248.384,31.6263,0,0.000885,0,0
0:2:17.857,250.026,31.8331,0,0.000885,0,0
0:2:18.665,251.022,31.9641,0,0.000885,0,0
0:2:19.466,252.899,32.1985,0,0.000885,0,0
0:2:20.259,253.9,32.3295,0,0.000885,0,0
0:2:21.048,256.538,32.6605,0,0.000885,0,0
0:2:21.840,258.415,32.9018,0,0.000885,0,0
0:2:22.629,259.176,32.9983,0,0.000885,0,0
0:2:23.419,260.879,33.2189,0,0.000885,0,0
0:2:24.224,261.991,33.3568,0,0.000885,0,0
0:2:25.024,263.984,33.6119,0,0.000885,0,0
0:2:25.809,265.043,33.7429,0,0.000885,0,0
0:2:26.603,266.92,33.9843,0,0.000885,0,0
0:2:27.389,268.855,34.2325,0,0.000885,0,0
0:2:28.182,270.554,34.4462,0,0.000885,0,0
0:2:28.978,271.964,34.6255,0,0.000885,0,0
0:2:29.782,273.192,34.7841,0,0.000885,0,0
0:2:30.576,274.838,34.9909,0,0.000885,0,0
0:2:31.367,276.421,35.1977,0,0.000885,0,0
0:2:32.156,278.005,35.3977,0,0.000885,0,0
0:2:32.966,280.056,35.6597,0,0.000885,0,0
0:2:33.769,281.172,35.7976,0,0.000885,0,0
0:2:34.571,282.756,36.0044,0,0.000885,0,0
0:2:35.364,284.339,36.2044,0,0.000885,0,0
0:2:36.161,285.861,36.3974,0,0.000885,0,0
0:2:36.961,287.564,36.6112,0,0.000885,0,0
0:2:37.752,288.97,36.7904,0,0.000885,0,0
0:2:38.547,290.144,36.9421,0,0.000885,0,0
0:2:39.351,292.195,37.2041,0,0.000885,0,0
0:2:40.168,294.192,37.4592,0,0.000885,0,0
0:2:40.959,295.362,37.604,0,0.000885,0,0
0:2:41.745,296.478,37.7488,0,0.000885,0,0
0:2:42.549,298.062,37.9487,0,0.000885,0,0
0:2:43.345,299.939,38.1901,0,0.000885,0,0
0:2:44.150,301.816,38.4314,0,0.000885,0,0
0:2:44.951,303.516,38.6451,0,0.000885,0,0
0:2:45.742,304.574,38.7761,0,0.000885,0,0
0:2:46.531,305.922,38.9485,0,0.000885,0,0
0:2:47.320,307.506,39.1553,0,0.000885,0,0
0:2:48.113,309.498,39.4035,0,0.000885,0,0
0:2:48.919,310.437,39.5276,0,0.000885,0,0
0:2:49.719,312.314,39.7621,0,0.000885,0,0
0:2:50.508,313.84,39.962,0,0.000885,0,0
0:2:51.298,315.833,40.2102,0,0.000885,0,0
0:2:52.089,316.887,40.3481,0,0.000885,0,0
0:2:52.877,319.115,40.6308,0,0.000885,0,0
0:2:53.680,320.174,40.7687,0,0.000885,0,0
0:2:54.481,321.464,40.9273,0,0.000885,0,0
0:2:55.278,322.99,41.1272,0,0.000885,0,0
0:2:56.066,324.573,41.3272,0,0.000885,0,0
0:2:56.857,326.215,41.534,0,0.000885,0,0
0:2:57.668,327.678,41.7202,0,0.000885,0,0
0:2:58.461,329.969,42.0098,0,0.000885,0,0
0:2:59.267,330.908,42.1339,0,0.000885,0,0
0:3:0.059,332.198,42.2993,0,0.000885,0,0
0:3:0.854,334.484,42.5889,0,0.000885,0,0
0:3:1.642,335.658,42.7337,0,0.000885,0,0
0:3:2.433,337.122,42.9268,0,0.000885,0,0
0:3:3.223,337.887,43.0233,0,0.000885,0,0
0:3:4.029,339.528,43.2301,0,0.000885,0,0
0:3:4.832,340.64,43.3749,0,0.000885,0,0
0:3:5.621,341.579,43.4921,0,0.000885,0,0
0:3:6.412,342.05,43.5542,0,0.000885,0,0
0:3:7.198,341.348,43.4645,0,0.000885,0,0
0:3:7.990,335.365,42.6992,0,0.000885,0,0
0:3:8.786,298.298,37.9832,0,0.000885,0,0
0:3:9.586,263.517,33.5499,0,0.000885,0,0
0:3:10.380,246.743,31.4194,0,0.000885,0,0
0:3:10.721,240.76,30.6541,0,0.000885,0,0