File: DataFile2021-07-03_075155.csv
Test ID:,Date Tested:,Time:,Test Type:,Diameter Avg. (mm):,Cyl. Corr. Factor:,Height (mm):,Age (days):,Weight (kN):,Break Type:,Ramp Rate (MPa/s):,Load at Break (kN):,Stress at Break (MPa):
12,7/3/2021,07:51,Cylinder,100,1,200,0,3.6,3,0.25,637.04,81.11
Sample Time,Load (kN),Stress (MPa),Long. Strain,Trans. Strain,Chan1 Deflection (mm),Chan2 Deflection (mm)
0:0:4.307,5.10211,0.648107,0,0.000885,0,0
0:0:5.695,8.21142,1.048,0,0.000885,0,0
0:0:7.085,10.5556,1.34448,0,0.000885,0,0
0:0:8.489,12.6107,1.60648,0,0.000885,0,0
0:0:9.899,15.4264,1.96501,0,0.000885,0,0
0:0:11.305,19.2386,2.44764,0,0.000885,0,0
0:0:12.698,22.3479,2.84753,0,0.000885,0,0
0:0:14.091,24.5141,3.12333,0,0.000885,0,0
0:0:15.504,27.45,3.49564,0,0.000885,0,0
0:0:16.903,29.9098,3.80591,0,0.000885,0,0
0:0:18.294,32.7256,4.16443,0,0.000885,0,0
0:0:19.692,35.7192,4.55054,0,0.000885,0,0
0:0:21.107,38.0056,4.84012,0,0.000885,0,0
0:0:22.499,40.937,5.21244,0,0.000885,0,0
0:0:23.894,43.8684,5.58475,0,0.000885,0,0
0:0:25.299,46.1592,5.87433,0,0.000885,0,0
0:0:26.705,49.6199,6.3156,0,0.000885,0,0
0:0:28.098,51.8485,6.59828,0,0.000885,0,0
0:0:29.494,54.6019,6.94992,0,0.000885,0,0
0:0:30.905,57.6534,7.34292,0,0.000885,0,0
0:0:32.302,59.9976,7.63939,0,0.000885,0,0
0:0:33.694,62.8133,7.99792,0,0.000885,0,0
0:0:35.101,65.8648,8.38402,0,0.000885,0,0
0:0:36.503,68.4448,8.71497,0,0.000885,0,0
0:0:37.892,71.4384,9.09418,0,0.000885,0,0
0:0:39.284,74.0184,9.42513,0,0.000885,0,0
0:0:40.699,76.4783,9.7354,0,0.000885,0,0
0:0:42.097,79.1205,10.0732,0,0.000885,0,0
0:0:43.489,81.9941,10.4387,0,0.000885,0,0
0:0:44.895,85.0411,10.8248,0,0.000885,0,0
0:0:46.308,87.5632,11.1488,0,0.000885,0,0
0:0:47.699,90.8505,11.5694,0,0.000885,0,0
0:0:49.092,93.1947,11.8659,0,0.000885,0,0
0:0:50.505,95.5434,12.1624,0,0.000885,0,0
0:0:51.902,98.7105,12.5691,0,0.000885,0,0
0:0:53.292,101.464,12.9208,0,0.000885,0,0
0:0:54.685,104.044,13.2448,0,0.000885,0,0
0:0:56.104,106.922,13.6103,0,0.000885,0,0
0:0:57.493,109.382,13.9274,0,0.000885,0,0
0:0:58.886,112.785,14.3618,0,0.000885,0,0
0:1:0.291,114.777,14.6169,0,0.000885,0,0
0:1:1.697,117.887,15.0099,0,0.000885,0,0
0:1:3.085,120.88,15.3891,0,0.000885,0,0
0:1:4.492,123.518,15.7269,0,0.000885,0,0
0:1:5.903,126.098,16.0579,0,0.000885,0,0
0:1:7.300,129.03,16.4302,0,0.000885,0,0
0:1:8.692,131.73,16.7749,0,0.000885,0,0
0:1:10.110,134.719,17.1542,0,0.000885,0,0
0:1:11.515,136.832,17.4231,0,0.000885,0,0
0:1:12.908,140.115,17.8367,0,0.000885,0,0
0:1:14.298,142.695,18.1677,0,0.000885,0,0
0:1:15.712,145.101,18.4779,0,0.000885,0,0
0:1:17.111,148.032,18.8503,0,0.000885,0,0
0:1:18.501,150.79,19.2019,0,0.000885,0,0
0:1:19.901,153.548,19.5535,0,0.000885,0,0
0:1:21.311,156.947,19.981,0,0.000885,0,0
0:1:22.704,159.469,20.3051,0,0.000885,0,0
0:1:24.094,161.639,20.5809,0,0.000885,0,0
0:1:25.503,164.513,20.9463,0,0.000885,0,0
0:1:26.903,167.097,21.2772,0,0.000885,0,0
0:1:28.296,170.554,21.7185,0,0.000885,0,0
0:1:29.697,172.609,21.9805,0,0.000885,0,0
0:1:31.112,175.776,22.3804,0,0.000885,0,0
0:1:32.507,178.649,22.7458,0,0.000885,0,0
0:1:33.898,181.407,23.0974,0,0.000885,0,0
0:1:35.306,183.752,23.3939,0,0.000885,0,0
0:1:36.706,186.919,23.8007,0,0.000885,0,0
0:1:38.099,188.796,24.0351,0,0.000885,0,0
0:1:39.499,192.021,24.4488,0,0.000885,0,0
0:1:40.904,195.188,24.8556,0,0.000885,0,0
0:1:42.299,197.417,25.1383,0,0.000885,0,0
0:1:43.687,200.174,25.4899,0,0.000885,0,0
0:1:45.088,202.99,25.8484,0,0.000885,0,0
0:1:46.497,206.215,26.2552,0,0.000885,0,0
0:1:47.891,208.853,26.5931,0,0.000885,0,0
0:1:49.279,210.85,26.8482,0,0.000885,0,0
0:1:50.685,214.249,27.2826,0,0.000885,0,0
0:1:52.079,216.068,27.5101,0,0.000885,0,0
0:1:53.459,219.88,27.9927,0,0.000885,0,0
0:1:54.850,221.757,28.234,0,0.000885,0,0
0:1:56.251,225.805,28.7511,0,0.000885,0,0
0:1:57.637,228.207,29.0545,0,0.000885,0,0
0:1:59.016,230.436,29.3372,0,0.000885,0,0
0:2:0.415,232.958,29.6612,0,0.000885,0,0
0:2:1.809,236.067,30.0542,0,0.000885,0,0
0:2:3.198,238.416,30.3576,0,0.000885,0,0
0:2:4.597,241.405,30.7368,0,0.000885,0,0
0:2:5.997,243.811,31.0402,0,0.000885,0,0
0:2:7.399,247.152,31.4677,0,0.000885,0,0
0:2:8.787,249.91,31.8193,0,0.000885,0,0
0:2:10.185,252.432,32.1434,0,0.000885,0,0
0:2:11.578,255.248,32.5019,0,0.000885,0,0
0:2:12.987,257.77,32.819,0,0.000885,0,0
0:2:14.387,260.586,33.1776,0,0.000885,0,0
0:2:15.793,263.811,33.5913,0,0.000885,0,0
0:2:17.191,266.097,33.8808,0,0.000885,0,0
0:2:18.591,269.086,34.26,0,0.000885,0,0
0:2:19.979,271.902,34.6186,0,0.000885,0,0
0:2:21.382,274.66,34.9702,0,0.000885,0,0
0:2:22.762,277.533,35.3356,0,0.000885,0,0
0:2:24.144,280.113,35.6666,0,0.000885,0,0
0:2:25.551,282.756,36.0044,0,0.000885,0,0
0:2:26.940,284.691,36.2457,0,0.000885,0,0
0:2:28.322,288.151,36.687,0,0.000885,0,0
0:2:29.713,291.256,37.0869,0,0.000885,0,0
0:2:31.111,293.605,37.3834,0,0.000885,0,0
0:2:32.493,295.54,37.6316,0,0.000885,0,0
0:2:33.904,299.294,38.1073,0,0.000885,0,0
0:2:35.304,301.465,38.3831,0,0.000885,0,0
0:2:36.693,304.574,38.7761,0,0.000885,0,0
0:2:38.077,307.328,39.1277,0,0.000885,0,0
0:2:39.455,309.792,39.4449,0,0.000885,0,0
0:2:40.862,312.492,39.7896,0,0.000885,0,0
0:2:42.250,315.539,40.1758,0,0.000885,0,0
0:2:43.629,317.71,40.4515,0,0.000885,0,0
0:2:45.028,321.055,40.879,0,0.000885,0,0
0:2:46.420,323.986,41.2513,0,0.000885,0,0
0:2:47.798,326.508,41.5754,0,0.000885,0,0
0:2:49.196,329.088,41.8994,0,0.000885,0,0
0:2:50.604,331.61,42.2235,0,0.000885,0,0
0:2:52.004,334.075,42.5338,0,0.000885,0,0
0:2:53.402,337.242,42.9405,0,0.000885,0,0
0:2:54.798,339.35,43.2094,0,0.000885,0,0
0:2:56.204,342.575,43.6162,0,0.000885,0,0
0:2:57.604,345.391,43.9748,0,0.000885,0,0
0:2:58.993,348.207,44.3333,0,0.000885,0,0
0:3:0.398,350.907,44.678,0,0.000885,0,0
0:3:1.808,353.66,45.0297,0,0.000885,0,0
0:3:3.194,356.245,45.3606,0,0.000885,0,0
0:3:4.606,359.234,45.7398,0,0.000885,0,0
0:3:6.011,362.228,46.119,0,0.000885,0,0
0:3:7.404,364.981,46.4707,0,0.000885,0,0
0:3:8.804,367.623,46.8085,0,0.000885,0,0
0:3:10.201,370.377,47.1601,0,0.000885,0,0
0:3:11.606,373.019,47.4911,0,0.000885,0,0
0:3:12.994,375.479,47.8082,0,0.000885,0,0
0:3:14.384,377.827,48.1047,0,0.000885,0,0
0:3:15.785,381.168,48.5322,0,0.000885,0,0
0:3:17.207,383.459,48.8218,0,0.000885,0,0
0:3:18.595,386.39,49.1941,0,0.000885,0,0
0:3:19.994,389.437,49.5871,0,0.000885,0,0
0:3:21.388,392.022,49.9111,0,0.000885,0,0
0:3:22.811,395.189,50.3179,0,0.000885,0,0
0:3:24.198,397.649,50.6282,0,0.000885,0,0
0:3:25.602,399.997,50.9316,0,0.000885,0,0
0:3:26.994,402.52,51.2487,0,0.000885,0,0
0:3:28.393,405.98,51.69,0,0.000885,0,0
0:3:29.780,408.56,52.0209,0,0.000885,0,0
0:3:31.184,411.67,52.4139,0,0.000885,0,0
0:3:32.564,414.423,52.7656,0,0.000885,0,0
0:3:33.946,416.887,53.0827,0,0.000885,0,0
0:3:35.351,419.939,53.4688,0,0.000885,0,0
0:3:36.741,422.519,53.7998,0,0.000885,0,0
0:3:38.122,424.983,54.1101,0,0.000885,0,0
0:3:39.510,427.621,54.4479,0,0.000885,0,0
0:3:40.914,429.907,54.7375,0,0.000885,0,0
0:3:42.295,433.426,55.1856,0,0.000885,0,0
0:3:43.691,436.242,55.5442,0,0.000885,0,0
0:3:45.099,438.354,55.8131,0,0.000885,0,0
0:3:46.508,441.637,56.2336,0,0.000885,0,0
0:3:47.905,444.395,56.5853,0,0.000885,0,0
0:3:49.303,446.682,56.8749,0,0.000885,0,0
0:3:50.709,449.675,57.2541,0,0.000885,0,0
0:3:52.116,452.313,57.5919,0,0.000885,0,0
0:3:53.496,455.187,57.9573,0,0.000885,0,0
0:3:54.902,458.176,58.3365,0,0.000885,0,0
0:3:56.292,460.582,58.6399,0,0.000885,0,0
0:3:57.693,463.634,59.0329,0,0.000885,0,0
0:3:59.113,466.214,59.357,0,0.000885,0,0
0:4:0.518,468.909,59.7017,0,0.000885,0,0
0:4:1.912,472.019,60.1016,0,0.000885,0,0
0:4:3.312,474.719,60.4394,0,0.000885,0,0
0:4:4.720,476.476,60.667,0,0.000885,0,0
0:4:6.116,480.23,61.1427,0,0.000885,0,0
0:4:7.500,482.223,61.3978,0,0.000885,0,0
0:4:8.900,485.039,61.7563,0,0.000885,0,0
0:4:10.299,487.912,62.1218,0,0.000885,0,0
0:4:11.712,490.319,62.432,0,0.000885,0,0
0:4:13.113,493.25,62.8043,0,0.000885,0,0
0:4:14.514,496.181,63.1767,0,0.000885,0,0
0:4:15.918,499.233,63.5628,0,0.000885,0,0
0:4:17.312,501.519,63.8523,0,0.000885,0,0
0:4:18.712,504.513,64.2385,0,0.000885,0,0
0:4:20.111,507.502,64.6177,0,0.000885,0,0
0:4:21.499,510.318,64.9762,0,0.000885,0,0
0:4:22.892,513.018,65.3209,0,0.000885,0,0
0:4:24.283,515.656,65.6519,0,0.000885,0,0
0:4:25.690,518.414,66.0035,0,0.000885,0,0
0:4:27.094,520.758,66.3069,0,0.000885,0,0
0:4:28.505,523.925,66.7068,0,0.000885,0,0
0:4:29.925,527.15,67.1205,0,0.000885,0,0
0:4:31.314,529.321,67.3963,0,0.000885,0,0
0:4:32.718,532.078,67.7479,0,0.000885,0,0
0:4:34.117,534.423,68.0444,0,0.000885,0,0
0:4:35.523,537.296,68.4098,0,0.000885,0,0
0:4:36.917,540.757,68.851,0,0.000885,0,0
0:4:38.299,542.986,69.1337,0,0.000885,0,0
0:4:39.696,546.095,69.5336,0,0.000885,0,0
0:4:41.094,548.323,69.8163,0,0.000885,0,0
0:4:42.479,551.548,70.2231,0,0.000885,0,0
0:4:43.859,553.19,70.4368,0,0.000885,0,0
0:4:45.264,556.063,70.8023,0,0.000885,0,0
0:4:46.651,558.763,71.147,0,0.000885,0,0
0:4:48.035,562.282,71.5952,0,0.000885,0,0
0:4:49.425,564.217,71.8365,0,0.000885,0,0
0:4:50.823,567.856,72.2984,0,0.000885,0,0
0:4:52.207,570.609,72.6501,0,0.000885,0,0
0:4:53.618,573.483,73.0155,0,0.000885,0,0
0:4:55.017,575.538,73.2775,0,0.000885,0,0
0:4:56.417,578.589,73.6705,0,0.000885,0,0
0:4:57.818,580.23,73.8773,0,0.000885,0,0
0:4:59.204,582.984,74.229,0,0.000885,0,0
0:5:0.611,585.626,74.5668,0,0.000885,0,0
0:5:2.010,588.38,74.9184,0,0.000885,0,0
0:5:3.406,591.315,75.2907,0,0.000885,0,0
0:5:4.825,594.661,75.7113,0,0.000885,0,0
0:5:6.222,597.712,76.1043,0,0.000885,0,0
0:5:7.612,600.941,76.5111,0,0.000885,0,0
0:5:9.011,603.935,76.8972,0,0.000885,0,0
0:5:10.427,606.755,77.2558,0,0.000885,0,0
0:5:11.817,608.632,77.4902,0,0.000885,0,0
0:5:13.208,611.742,77.8901,0,0.000885,0,0
0:5:14.608,614.206,78.2003,0,0.000885,0,0
0:5:16.012,616.906,78.5451,0,0.000885,0,0
0:5:17.411,619.611,78.8898,0,0.000885,0,0
0:5:18.813,621.955,79.1932,0,0.000885,0,0
0:5:20.225,625.42,79.6276,0,0.000885,0,0
0:5:21.619,627.942,79.9516,0,0.000885,0,0
0:5:23.008,630.291,80.2481,0,0.000885,0,0
0:5:24.402,633.169,80.6204,0,0.000885,0,0
0:5:25.815,635.869,80.9582,0,0.000885,0,0
0:5:27.210,637.043,81.1099,0,0.000885,0,0
0:5:28.589,618.668,78.7726,0,0.000885,0,0