File: DataFile2021-06-24_051428.csv
Test ID:,Date Tested:,Time:,Test Type:,Diameter Avg. (mm):,Cyl. Corr. Factor:,Height (mm):,Age (days):,Weight (kN):,Break Type:,Ramp Rate (MPa/s):,Load at Break (kN):,Stress at Break (MPa):
12,6/24/2021,05:14,Cylinder,150,1,300,0,3.6,3,0.25,1157.06,65.48
Sample Time,Load (kN),Stress (MPa),Long. Strain,Trans. Strain,Chan1 Deflection (mm),Chan2 Deflection (mm)
0:0:21.932,5.92503,0.337843,0,0.000885,0,0
0:0:23.037,13.0199,0.737739,0,0.000885,0,0
0:0:24.138,13.4292,0.758423,0,0.000885,0,0
0:0:25.243,18.945,1.06869,0,0.000885,0,0
0:0:26.338,24.87,1.40653,0,0.000885,0,0
0:0:27.432,30.8484,1.74437,0,0.000885,0,0
0:0:28.548,36.0706,2.04085,0,0.000885,0,0
0:0:29.646,39.9406,2.26148,0,0.000885,0,0
0:0:30.742,43.9885,2.48901,0,0.000885,0,0
0:0:31.837,49.0327,2.77169,0,0.000885,0,0
0:0:32.954,53.7834,3.04059,0,0.000885,0,0
0:0:34.064,59.3526,3.35775,0,0.000885,0,0
0:0:35.160,64.3391,3.64043,0,0.000885,0,0
0:0:36.253,68.6227,3.88175,0,0.000885,0,0
0:0:37.355,73.5469,4.16443,0,0.000885,0,0
0:0:38.466,78.8269,4.46091,0,0.000885,0,0
0:0:39.563,82.8748,4.68843,0,0.000885,0,0
0:0:40.661,87.9191,4.97801,0,0.000885,0,0
0:0:41.756,92.9589,5.2607,0,0.000885,0,0
0:0:42.862,98.1811,5.55717,0,0.000885,0,0
0:0:43.968,103.461,5.85365,0,0.000885,0,0
0:0:45.063,107.505,6.08118,0,0.000885,0,0
0:0:46.158,112.549,6.37076,0,0.000885,0,0
0:0:47.255,117.3,6.63965,0,0.000885,0,0
0:0:48.370,121.935,6.90165,0,0.000885,0,0
0:0:49.474,127.33,7.20502,0,0.000885,0,0
0:0:50.568,132.432,7.4946,0,0.000885,0,0
0:0:51.662,136.947,7.74971,0,0.000885,0,0
0:0:52.766,141.467,8.00481,0,0.000885,0,0
0:0:53.879,146.569,8.29439,0,0.000885,0,0
0:0:54.976,151.32,8.56329,0,0.000885,0,0
0:0:56.071,155.95,8.82529,0,0.000885,0,0
0:0:57.166,161.288,9.12866,0,0.000885,0,0
0:0:58.275,165.865,9.38376,0,0.000885,0,0
0:0:59.380,170.616,9.65266,0,0.000885,0,0
0:1:0.477,175.892,9.95603,0,0.000885,0,0
0:1:1.573,180.878,10.2387,0,0.000885,0,0
0:1:2.680,185.277,10.4869,0,0.000885,0,0
0:1:3.791,190.264,10.7696,0,0.000885,0,0
0:1:4.880,195.13,11.0454,0,0.000885,0,0
0:1:5.967,200.348,11.335,0,0.000885,0,0
0:1:7.058,204.925,11.597,0,0.000885,0,0
0:1:8.165,210.027,11.8866,0,0.000885,0,0
0:1:9.260,215.249,12.183,0,0.000885,0,0
0:1:10.348,219.235,12.4037,0,0.000885,0,0
0:1:11.432,223.812,12.6657,0,0.000885,0,0
0:1:12.523,229.146,12.969,0,0.000885,0,0
0:1:13.631,233.896,13.2379,0,0.000885,0,0
0:1:14.721,238.474,13.493,0,0.000885,0,0
0:1:15.819,243.166,13.7619,0,0.000885,0,0
0:1:16.906,247.739,14.017,0,0.000885,0,0
0:1:18.007,252.726,14.2997,0,0.000885,0,0
0:1:19.105,258.473,14.6238,0,0.000885,0,0
0:1:20.192,263.166,14.8927,0,0.000885,0,0
0:1:21.281,267.859,15.1547,0,0.000885,0,0
0:1:22.370,272.316,15.4098,0,0.000885,0,0
0:1:23.475,276.946,15.6718,0,0.000885,0,0
0:1:24.568,282.342,15.9752,0,0.000885,0,0
0:1:25.654,287.155,16.2509,0,0.000885,0,0
0:1:26.742,291.492,16.4923,0,0.000885,0,0
0:1:27.846,296.594,16.7818,0,0.000885,0,0
0:1:28.942,301.229,17.0438,0,0.000885,0,0
0:1:30.028,306.038,17.3196,0,0.000885,0,0
0:1:31.135,311.905,17.6506,0,0.000885,0,0
0:1:32.246,316.242,17.8988,0,0.000885,0,0
0:1:33.353,320.993,18.1677,0,0.000885,0,0
0:1:34.439,325.806,18.4366,0,0.000885,0,0
0:1:35.526,330.845,18.7193,0,0.000885,0,0
0:1:36.635,335.658,18.9951,0,0.000885,0,0
0:1:37.756,340.409,19.264,0,0.000885,0,0
0:1:38.860,344.982,19.5191,0,0.000885,0,0
0:1:39.948,350.435,19.8293,0,0.000885,0,0
0:1:41.043,355.306,20.1051,0,0.000885,0,0
0:1:42.140,360.115,20.3809,0,0.000885,0,0
0:1:43.248,364.687,20.636,0,0.000885,0,0
0:1:44.340,369.029,20.8842,0,0.000885,0,0
0:1:45.428,374.247,21.1807,0,0.000885,0,0
0:1:46.525,379.06,21.4496,0,0.000885,0,0
0:1:47.625,384.629,21.7667,0,0.000885,0,0
0:1:48.731,389.557,22.0425,0,0.000885,0,0
0:1:49.823,393.957,22.2908,0,0.000885,0,0
0:1:50.913,398.294,22.539,0,0.000885,0,0
0:1:52.000,402.813,22.7941,0,0.000885,0,0
0:1:53.105,408.147,23.0974,0,0.000885,0,0
0:1:54.196,412.724,23.3525,0,0.000885,0,0
0:1:55.283,417.826,23.6421,0,0.000885,0,0
0:1:56.372,422.519,23.911,0,0.000885,0,0
0:1:57.469,427.269,24.1799,0,0.000885,0,0
0:1:58.575,432.02,24.4488,0,0.000885,0,0
0:1:59.664,437.589,24.766,0,0.000885,0,0
0:2:0.750,442.051,25.0142,0,0.000885,0,0
0:2:1.845,447.327,25.3107,0,0.000885,0,0
0:2:2.958,452.135,25.5864,0,0.000885,0,0
0:2:4.055,455.947,25.8002,0,0.000885,0,0
0:2:5.142,461.169,26.0967,0,0.000885,0,0
0:2:6.253,465.978,26.3656,0,0.000885,0,0
0:2:7.341,470.844,26.6413,0,0.000885,0,0
0:2:8.448,476.124,26.9447,0,0.000885,0,0
0:2:9.539,481.284,27.2343,0,0.000885,0,0
0:2:10.654,485.919,27.4963,0,0.000885,0,0
0:2:11.750,491.257,27.7997,0,0.000885,0,0
0:2:12.855,496.066,28.0686,0,0.000885,0,0
0:2:13.949,500.229,28.3099,0,0.000885,0,0
0:2:15.037,504.864,28.5719,0,0.000885,0,0
0:2:16.146,510.26,28.8752,0,0.000885,0,0
0:2:17.255,515.011,29.1441,0,0.000885,0,0
0:2:18.361,519.997,29.4268,0,0.000885,0,0
0:2:19.451,524.628,29.6888,0,0.000885,0,0
0:2:20.549,529.436,29.9577,0,0.000885,0,0
0:2:21.634,534.423,30.2404,0,0.000885,0,0
0:2:22.734,539.058,30.5024,0,0.000885,0,0
0:2:23.837,543.337,30.7437,0,0.000885,0,0
0:2:24.934,548.559,31.0402,0,0.000885,0,0
0:2:26.022,553.603,31.3298,0,0.000885,0,0
0:2:27.114,558.292,31.5918,0,0.000885,0,0
0:2:28.220,563.808,31.902,0,0.000885,0,0
0:2:29.310,568.38,32.164,0,0.000885,0,0
0:2:30.399,573.251,32.4398,0,0.000885,0,0
0:2:31.487,578.06,32.7087,0,0.000885,0,0
0:2:32.585,582.633,32.9707,0,0.000885,0,0
0:2:33.685,587.503,33.2465,0,0.000885,0,0
0:2:34.776,592.49,33.5292,0,0.000885,0,0
0:2:35.868,597.245,33.7981,0,0.000885,0,0
0:2:36.959,601.884,34.0601,0,0.000885,0,0
0:2:38.073,606.519,34.3221,0,0.000885,0,0
0:2:39.173,612.271,34.6462,0,0.000885,0,0
0:2:40.267,616.617,34.8944,0,0.000885,0,0
0:2:41.360,621.43,35.1633,0,0.000885,0,0
0:2:42.465,626.772,35.4666,0,0.000885,0,0
0:2:43.568,631.172,35.7148,0,0.000885,0,0
0:2:44.662,635.927,35.9837,0,0.000885,0,0
0:2:45.753,640.446,36.2388,0,0.000885,0,0
0:2:46.844,645.321,36.5146,0,0.000885,0,0
0:2:47.958,650.076,36.7835,0,0.000885,0,0
0:2:49.061,655.592,37.1007,0,0.000885,0,0
0:2:50.153,660.463,37.3765,0,0.000885,0,0
0:2:51.242,664.925,37.6247,0,0.000885,0,0
0:2:52.352,669.68,37.8936,0,0.000885,0,0
0:2:53.464,674.786,38.1832,0,0.000885,0,0
0:2:54.559,679.657,38.459,0,0.000885,0,0
0:2:55.652,684.532,38.7347,0,0.000885,0,0
0:2:56.744,689.581,39.0243,0,0.000885,0,0
0:2:57.846,694.745,39.3139,0,0.000885,0,0
0:2:58.953,699.323,39.5759,0,0.000885,0,0
0:3:0.044,703.842,39.831,0,0.000885,0,0
0:3:1.135,709.069,40.1275,0,0.000885,0,0
0:3:2.239,713.704,40.3895,0,0.000885,0,0
0:3:3.346,718.695,40.6722,0,0.000885,0,0
0:3:4.448,723.33,40.9342,0,0.000885,0,0
0:3:5.542,728.205,41.21,0,0.000885,0,0
0:3:6.642,733.485,41.5064,0,0.000885,0,0
0:3:7.761,738.067,41.7684,0,0.000885,0,0
0:3:8.861,742.76,42.0304,0,0.000885,0,0
0:3:9.956,746.812,42.258,0,0.000885,0,0
0:3:11.059,752.741,42.5958,0,0.000885,0,0
0:3:12.153,757.319,42.8578,0,0.000885,0,0
0:3:13.266,762.603,43.1543,0,0.000885,0,0
0:3:14.363,767.296,43.4232,0,0.000885,0,0
0:3:15.457,771.935,43.6852,0,0.000885,0,0
0:3:16.546,776.984,43.9679,0,0.000885,0,0
0:3:17.660,781.561,44.2299,0,0.000885,0,0
0:3:18.762,786.374,44.4988,0,0.000885,0,0
0:3:19.853,791.13,44.7677,0,0.000885,0,0
0:3:20.954,796.236,45.0572,0,0.000885,0,0
0:3:22.048,801.227,45.3399,0,0.000885,0,0
0:3:23.161,806.271,45.6226,0,0.000885,0,0
0:3:24.256,811.089,45.8984,0,0.000885,0,0
0:3:25.347,815.782,46.1673,0,0.000885,0,0
0:3:26.440,820.773,46.4431,0,0.000885,0,0
0:3:27.543,825.585,46.7189,0,0.000885,0,0
0:3:28.651,830.221,46.9809,0,0.000885,0,0
0:3:29.754,834.451,47.2222,0,0.000885,0,0
0:3:30.846,840.024,47.5325,0,0.000885,0,0
0:3:31.946,845.131,47.822,0,0.000885,0,0
0:3:33.058,849.77,48.084,0,0.000885,0,0
0:3:34.161,854.641,48.3598,0,0.000885,0,0
0:3:35.252,859.218,48.6218,0,0.000885,0,0
0:3:36.346,864.503,48.9183,0,0.000885,0,0
0:3:37.449,868.844,49.1665,0,0.000885,0,0
0:3:38.562,874.249,49.4699,0,0.000885,0,0
0:3:39.656,878.826,49.7319,0,0.000885,0,0
0:3:40.748,883.697,50.0077,0,0.000885,0,0
0:3:41.841,887.923,50.249,0,0.000885,0,0
0:3:42.952,893.674,50.573,0,0.000885,0,0
0:3:44.052,898.136,50.8213,0,0.000885,0,0
0:3:45.142,902.833,51.0902,0,0.000885,0,0
0:3:46.242,907.882,51.3728,0,0.000885,0,0
0:3:47.345,913.104,51.6693,0,0.000885,0,0
0:3:48.457,917.917,51.9451,0,0.000885,0,0
0:3:49.548,923.38,52.2554,0,0.000885,0,0
0:3:50.641,927.721,52.4967,0,0.000885,0,0
0:3:51.743,932.418,52.7656,0,0.000885,0,0
0:3:52.851,937.174,53.0345,0,0.000885,0,0
0:3:53.953,941.515,53.2758,0,0.000885,0,0
0:3:55.046,946.8,53.5792,0,0.000885,0,0
0:3:56.150,951.964,53.8687,0,0.000885,0,0
0:3:57.256,957.013,54.1583,0,0.000885,0,0
0:3:58.362,961.648,54.4203,0,0.000885,0,0
0:3:59.451,965.936,54.6616,0,0.000885,0,0
0:4:0.564,971.1,54.9512,0,0.000885,0,0
0:4:1.653,975.677,55.2132,0,0.000885,0,0
0:4:2.766,981.371,55.5373,0,0.000885,0,0
0:4:3.865,986.42,55.82,0,0.000885,0,0
0:4:4.959,990.708,56.0613,0,0.000885,0,0
0:4:6.062,995.227,56.3164,0,0.000885,0,0
0:4:7.165,1000.04,56.5922,0,0.000885,0,0
0:4:8.276,1005.38,56.8955,0,0.000885,0,0
0:4:9.369,1010.08,57.1575,0,0.000885,0,0
0:4:10.461,1014.54,57.4126,0,0.000885,0,0
0:4:11.564,1020.41,57.7436,0,0.000885,0,0
0:4:12.666,1024.93,57.9987,0,0.000885,0,0
0:4:13.774,1029.21,58.24,0,0.000885,0,0
0:4:14.869,1034.38,58.5365,0,0.000885,0,0
0:4:15.960,1039.54,58.8261,0,0.000885,0,0
0:4:17.055,1044.12,59.0881,0,0.000885,0,0
0:4:18.166,1048.47,59.3294,0,0.000885,0,0
0:4:19.261,1054.1,59.6465,0,0.000885,0,0
0:4:20.366,1058.85,59.9223,0,0.000885,0,0
0:4:21.468,1064.02,60.2119,0,0.000885,0,0
0:4:22.573,1068.54,60.467,0,0.000885,0,0
0:4:23.674,1073.41,60.7428,0,0.000885,0,0
0:4:24.766,1078.05,61.0048,0,0.000885,0,0
0:4:25.860,1083.04,61.2875,0,0.000885,0,0
0:4:26.950,1087.32,61.5288,0,0.000885,0,0
0:4:28.065,1092.08,61.7977,0,0.000885,0,0
0:4:29.165,1097.24,62.0942,0,0.000885,0,0
0:4:30.265,1102.47,62.3838,0,0.000885,0,0
0:4:31.356,1107.93,62.694,0,0.000885,0,0
0:4:32.457,1112.1,62.9284,0,0.000885,0,0
0:4:33.563,1112.68,62.9629,0,0.000885,0,0
0:4:34.667,1120.43,63.4042,0,0.000885,0,0
0:4:35.769,1123.13,63.5559,0,0.000885,0,0
0:4:36.856,1129.65,63.9282,0,0.000885,0,0
0:4:37.965,1137.98,64.397,0,0.000885,0,0
0:4:39.064,1144.73,64.7762,0,0.000885,0,0
0:4:40.167,1148.84,65.0107,0,0.000885,0,0
0:4:41.258,1148.84,65.0107,0,0.000885,0,0
0:4:42.369,1146.14,64.859,0,0.000885,0,0
0:4:43.475,1151.01,65.1348,0,0.000885,0,0
0:4:44.554,1025.52,58.0332,0,0.000885,0,0