File: DataFile2021-07-25_063232.csv
Test ID:,Date Tested:,Time:,Test Type:,Diameter Avg. (mm):,Cyl. Corr. Factor:,Height (mm):,Age (days):,Weight (kN):,Break Type:,Ramp Rate (MPa/s):,Load at Break (kN):,Stress at Break (MPa):
12,7/25/2021,06:32,Cylinder,150,1,300,0,3.89,3,0.35,490.67,27.77
Sample Time,Load (kN),Stress (MPa),Long. Strain,Trans. Strain,Chan1 Deflection (mm),Chan2 Deflection (mm)
0:0:3.202,5.39569,0.303369,0,0.000885,0,0
0:0:3.597,7.09491,0.399896,0,0.000885,0,0
0:0:3.994,8.03349,0.455054,0,0.000885,0,0
0:0:4.394,12.6685,0.717055,0,0.000885,0,0
0:0:4.793,14.6613,0.827371,0,0.000885,0,0
0:0:5.190,16.7164,0.944582,0,0.000885,0,0
0:0:5.587,19.4699,1.10316,0,0.000885,0,0
0:0:5.985,21.4093,1.21348,0,0.000885,0,0
0:0:6.386,23.5177,1.33069,0,0.000885,0,0
0:0:6.783,26.8628,1.51685,0,0.000885,0,0
0:0:7.179,28.6199,1.62027,0,0.000885,0,0
0:0:7.578,31.7292,1.79264,0,0.000885,0,0
0:0:7.978,34.8385,1.9719,0,0.000885,0,0
0:0:8.377,37.8277,2.13737,0,0.000885,0,0
0:0:8.783,40.937,2.31664,0,0.000885,0,0
0:0:9.187,43.6371,2.46832,0,0.000885,0,0
0:0:9.589,45.5142,2.57864,0,0.000885,0,0
0:0:9.993,47.9741,2.71653,0,0.000885,0,0
0:0:10.389,49.7934,2.81996,0,0.000885,0,0
0:0:10.786,51.9063,2.93717,0,0.000885,0,0
0:0:11.183,54.3083,3.07506,0,0.000885,0,0
0:0:11.585,57.0662,3.22675,0,0.000885,0,0
0:0:11.983,59.5305,3.37154,0,0.000885,0,0
0:0:12.378,62.3463,3.53012,0,0.000885,0,0
0:0:12.776,65.0419,3.6818,0,0.000885,0,0
0:0:13.175,67.2705,3.80591,0,0.000885,0,0
0:0:13.575,70.144,3.97138,0,0.000885,0,0
0:0:13.982,72.4348,4.09549,0,0.000885,0,0
0:0:14.386,74.7791,4.23338,0,0.000885,0,0
0:0:14.790,77.2434,4.37128,0,0.000885,0,0
0:0:15.192,80.0591,4.52986,0,0.000885,0,0
0:0:15.589,82.3455,4.66086,0,0.000885,0,0
0:0:15.989,85.1034,4.81254,0,0.000885,0,0
0:0:16.383,87.3898,4.94354,0,0.000885,0,0
0:0:16.783,88.7376,5.01938,0,0.000885,0,0
0:0:17.184,91.6111,5.18486,0,0.000885,0,0
0:0:17.581,93.8975,5.31586,0,0.000885,0,0
0:0:17.978,96.4819,5.46065,0,0.000885,0,0
0:0:18.376,99.1775,5.61233,0,0.000885,0,0
0:0:18.778,101.878,5.76402,0,0.000885,0,0
0:0:19.184,104.164,5.89502,0,0.000885,0,0
0:0:19.588,106.277,6.01223,0,0.000885,0,0
0:0:19.991,108.857,6.15702,0,0.000885,0,0
0:0:20.392,111.085,6.28802,0,0.000885,0,0
0:0:20.792,114.368,6.47418,0,0.000885,0,0
0:0:21.191,116.655,6.59828,0,0.000885,0,0
0:0:21.587,119.297,6.74997,0,0.000885,0,0
0:0:21.984,121.583,6.88097,0,0.000885,0,0
0:0:22.385,123.576,6.99128,0,0.000885,0,0
0:0:22.784,126.334,7.14986,0,0.000885,0,0
0:0:23.182,129.617,7.33602,0,0.000885,0,0
0:0:23.587,131.965,7.46702,0,0.000885,0,0
0:0:23.993,134.661,7.61871,0,0.000885,0,0
0:0:24.395,137.125,7.7566,0,0.000885,0,0
0:0:24.798,139.59,7.90139,0,0.000885,0,0
0:0:25.195,141.698,8.0186,0,0.000885,0,0
0:0:25.593,144.34,8.17029,0,0.000885,0,0
0:0:25.993,146.862,8.30818,0,0.000885,0,0
0:0:26.393,148.971,8.43229,0,0.000885,0,0
0:0:26.791,151.787,8.59087,0,0.000885,0,0
0:0:27.187,153.255,8.6736,0,0.000885,0,0
0:0:27.585,155.363,8.79082,0,0.000885,0,0
0:0:27.984,158.121,8.94939,0,0.000885,0,0
0:0:28.384,160.879,9.10108,0,0.000885,0,0
0:0:28.789,163.459,9.25276,0,0.000885,0,0
0:0:29.194,166.097,9.39755,0,0.000885,0,0
0:0:29.596,168.387,9.52855,0,0.000885,0,0
0:0:30.001,171.261,9.69403,0,0.000885,0,0
0:0:30.399,174.25,9.8595,0,0.000885,0,0
0:0:30.797,176.363,9.97671,0,0.000885,0,0
0:0:31.194,178.885,10.1215,0,0.000885,0,0
0:0:31.592,180.936,10.2387,0,0.000885,0,0
0:0:31.993,183.578,10.3904,0,0.000885,0,0
0:0:32.391,186.567,10.5559,0,0.000885,0,0
0:0:32.789,188.738,10.68,0,0.000885,0,0
0:0:33.187,190.789,10.7972,0,0.000885,0,0
0:0:33.588,193.84,10.9696,0,0.000885,0,0
0:0:33.992,197.007,11.1488,0,0.000885,0,0
0:0:34.393,199.12,11.266,0,0.000885,0,0
0:0:34.794,201.522,11.4039,0,0.000885,0,0
0:0:35.190,203.751,11.528,0,0.000885,0,0
0:0:35.588,206.273,11.6728,0,0.000885,0,0
0:0:35.983,207.914,11.7625,0,0.000885,0,0
0:0:36.376,210.614,11.921,0,0.000885,0,0
0:0:36.770,213.43,12.0796,0,0.000885,0,0
0:0:37.169,215.832,12.2106,0,0.000885,0,0
0:0:37.575,218.061,12.3416,0,0.000885,0,0
0:0:37.970,220.116,12.4588,0,0.000885,0,0
0:0:38.373,222.518,12.5898,0,0.000885,0,0
0:0:38.776,225.747,12.776,0,0.000885,0,0
0:0:39.179,228.207,12.9139,0,0.000885,0,0
0:0:39.579,230.436,13.038,0,0.000885,0,0
0:0:39.981,232.9,13.1828,0,0.000885,0,0
0:0:40.374,235.186,13.3069,0,0.000885,0,0
0:0:40.769,237.709,13.4517,0,0.000885,0,0
0:0:41.163,240.466,13.6103,0,0.000885,0,0
0:0:41.562,242.873,13.7413,0,0.000885,0,0
0:0:41.954,245.569,13.8998,0,0.000885,0,0
0:0:42.348,246.979,13.9757,0,0.000885,0,0
0:0:42.755,249.501,14.1205,0,0.000885,0,0
0:0:43.152,252.726,14.2997,0,0.000885,0,0
0:0:43.557,255.128,14.4376,0,0.000885,0,0
0:0:43.960,257.419,14.5686,0,0.000885,0,0
0:0:44.362,259.821,14.6996,0,0.000885,0,0
0:0:44.762,262.521,14.8582,0,0.000885,0,0
0:0:45.163,265.394,15.0168,0,0.000885,0,0
0:0:45.557,267.503,15.1409,0,0.000885,0,0
0:0:45.961,270.025,15.2788,0,0.000885,0,0
0:0:46.364,272.489,15.4167,0,0.000885,0,0
0:0:46.762,275.131,15.5684,0,0.000885,0,0
0:0:47.158,277.124,15.6787,0,0.000885,0,0
0:0:47.552,279.762,15.8304,0,0.000885,0,0
0:0:47.956,281.755,15.9476,0,0.000885,0,0
0:0:48.361,284.513,16.0993,0,0.000885,0,0
0:0:48.760,286.448,16.2096,0,0.000885,0,0
0:0:49.163,289.263,16.3682,0,0.000885,0,0
0:0:49.563,291.55,16.4992,0,0.000885,0,0
0:0:49.963,294.014,16.637,0,0.000885,0,0
0:0:50.373,296.127,16.7543,0,0.000885,0,0
0:0:50.770,298.823,16.9128,0,0.000885,0,0
0:0:51.164,302.168,17.099,0,0.000885,0,0
0:0:51.564,304.103,17.2093,0,0.000885,0,0
0:0:51.959,306.625,17.3541,0,0.000885,0,0
0:0:52.357,308.093,17.4368,0,0.000885,0,0
0:0:52.753,310.908,17.5954,0,0.000885,0,0
0:0:53.159,313.546,17.7402,0,0.000885,0,0
0:0:53.561,315.481,17.8505,0,0.000885,0,0
0:0:53.962,318.706,18.0367,0,0.000885,0,0
0:0:54.365,321.58,18.1953,0,0.000885,0,0
0:0:54.765,323.808,18.3263,0,0.000885,0,0
0:0:55.165,326.451,18.4711,0,0.000885,0,0
0:0:55.560,329.088,18.6227,0,0.000885,0,0
0:0:55.966,331.846,18.7813,0,0.000885,0,0
0:0:56.376,333.897,18.8916,0,0.000885,0,0
0:0:56.780,336.477,19.0433,0,0.000885,0,0
0:0:57.174,339.528,19.2157,0,0.000885,0,0
0:0:57.567,342.518,19.3812,0,0.000885,0,0
0:0:57.974,344.982,19.5191,0,0.000885,0,0
0:0:58.371,347.504,19.6638,0,0.000885,0,0
0:0:58.774,349.733,19.788,0,0.000885,0,0
0:0:59.176,352.842,19.9672,0,0.000885,0,0
0:0:59.576,355.186,20.0982,0,0.000885,0,0
0:0:59.977,356.948,20.2016,0,0.000885,0,0
0:1:0.371,360.173,20.3809,0,0.000885,0,0
0:1:0.763,362.93,20.5395,0,0.000885,0,0
0:1:1.168,364.981,20.6567,0,0.000885,0,0
0:1:1.566,367.623,20.8015,0,0.000885,0,0
0:1:1.961,368.971,20.8773,0,0.000885,0,0
0:1:2.354,370.555,20.967,0,0.000885,0,0
0:1:2.750,373.486,21.1324,0,0.000885,0,0
0:1:3.156,376.244,21.291,0,0.000885,0,0
0:1:3.562,378.063,21.3944,0,0.000885,0,0
0:1:3.967,380.995,21.5599,0,0.000885,0,0
0:1:4.367,382.93,21.6702,0,0.000885,0,0
0:1:4.767,385.625,21.8219,0,0.000885,0,0
0:1:5.165,387.622,21.9322,0,0.000885,0,0
0:1:5.561,390.318,22.0908,0,0.000885,0,0
0:1:5.957,393.076,22.2425,0,0.000885,0,0
0:1:6.359,395.892,22.4011,0,0.000885,0,0
0:1:6.765,398.12,22.5321,0,0.000885,0,0
0:1:7.175,400.171,22.6424,0,0.000885,0,0
0:1:7.578,402.577,22.7803,0,0.000885,0,0
0:1:7.972,404.57,22.8975,0,0.000885,0,0
0:1:8.378,406.683,23.0147,0,0.000885,0,0
0:1:8.776,409.321,23.1595,0,0.000885,0,0
0:1:9.181,411.314,23.2767,0,0.000885,0,0
0:1:9.582,414.192,23.4353,0,0.000885,0,0
0:1:9.984,417.942,23.649,0,0.000885,0,0
0:1:10.381,420.877,23.8145,0,0.000885,0,0
0:1:10.777,423.982,23.9938,0,0.000885,0,0
0:1:11.171,427.149,24.173,0,0.000885,0,0
0:1:11.574,430.259,24.3454,0,0.000885,0,0
0:1:11.978,432.194,24.4557,0,0.000885,0,0
0:1:12.376,434.716,24.6005,0,0.000885,0,0
0:1:12.769,436.829,24.7177,0,0.000885,0,0
0:1:13.174,439.351,24.8625,0,0.000885,0,0
0:1:13.578,441.05,24.959,0,0.000885,0,0
0:1:13.980,443.75,25.1107,0,0.000885,0,0
0:1:14.380,445.801,25.2279,0,0.000885,0,0
0:1:14.782,448.149,25.3589,0,0.000885,0,0
0:1:15.175,450.436,25.4899,0,0.000885,0,0
0:1:15.569,452.371,25.6002,0,0.000885,0,0
0:1:15.967,454.657,25.7312,0,0.000885,0,0
0:1:16.374,456.654,25.8416,0,0.000885,0,0
0:1:16.778,459.056,25.9794,0,0.000885,0,0
0:1:17.180,461.757,26.1311,0,0.000885,0,0
0:1:17.578,464.221,26.269,0,0.000885,0,0
0:1:17.976,466.387,26.3931,0,0.000885,0,0
0:1:18.368,469.554,26.5724,0,0.000885,0,0
0:1:18.774,472.312,26.7241,0,0.000885,0,0
0:1:19.175,474.95,26.8758,0,0.000885,0,0
0:1:19.575,476.827,26.9861,0,0.000885,0,0
0:1:19.977,479.118,27.1102,0,0.000885,0,0
0:1:20.379,481.347,27.2412,0,0.000885,0,0
0:1:20.773,480.057,27.1653,0,0.000885,0,0
0:1:21.178,470.964,26.6482,0,0.000885,0,0
0:1:21.574,473.838,26.8137,0,0.000885,0,0
0:1:21.977,478.998,27.1033,0,0.000885,0,0
0:1:22.377,483.104,27.3377,0,0.000885,0,0
0:1:22.773,485.977,27.5032,0,0.000885,0,0
0:1:23.168,489.144,27.6825,0,0.000885,0,0
0:1:23.574,491.021,27.7859,0,0.000885,0,0
0:1:23.976,490.083,27.7307,0,0.000885,0,0
0:1:24.377,485.452,27.4687,0,0.000885,0,0
0:1:24.776,477.708,27.0343,0,0.000885,0,0
0:1:25.175,468.616,26.5172,0,0.000885,0,0
0:1:25.578,462.05,26.1449,0,0.000885,0,0
0:1:25.969,457.882,25.9105,0,0.000885,0,0
0:1:26.374,453.545,25.6623,0,0.000885,0,0
0:1:26.768,447.269,25.3107,0,0.000885,0,0
0:1:27.175,438.354,24.8073,0,0.000885,0,0
0:1:27.575,422.87,23.9317,0,0.000885,0,0
0:1:27.968,397.004,22.4631,0,0.000885,0,0
0:1:28.364,357.299,20.2223,0,0.000885,0,0
0:1:28.482,357.299,20.2223,0,0.000885,0,0