File: DataFile2021-07-15_073205.csv
Test ID:,Date Tested:,Time:,Test Type:,Diameter Avg. (mm):,Cyl. Corr. Factor:,Height (mm):,Age (days):,Weight (kN):,Break Type:,Ramp Rate (MPa/s):,Load at Break (kN):,Stress at Break (MPa):
12,7/15/2021,07:32,Cylinder,100,1,200,0,3.6,3,0.25,1277.98,162.72
Sample Time,Load (kN),Stress (MPa),Long. Strain,Trans. Strain,Chan1 Deflection (mm),Chan2 Deflection (mm)
0:0:6.970,5.28004,0.668791,0,0.000885,0,0
0:0:9.747,10.2042,1.29621,0,0.000885,0,0
0:0:12.540,15.7778,2.00637,0,0.000885,0,0
0:0:15.338,21.4093,2.72343,0,0.000885,0,0
0:0:18.138,27.1564,3.45427,0,0.000885,0,0
0:0:20.931,32.5521,4.14375,0,0.000885,0,0
0:0:23.738,38.357,4.88149,0,0.000885,0,0
0:0:26.529,43.5792,5.55028,0,0.000885,0,0
0:0:29.335,48.9749,6.23286,0,0.000885,0,0
0:0:32.124,54.1349,6.89476,0,0.000885,0,0
0:0:34.931,60.1177,7.65318,0,0.000885,0,0
0:0:37.728,65.5712,8.34955,0,0.000885,0,0
0:0:40.531,71.4963,9.10108,0,0.000885,0,0
0:0:43.332,76.3626,9.72161,0,0.000885,0,0
0:0:46.127,81.874,10.4249,0,0.000885,0,0
0:0:48.934,87.5054,11.1419,0,0.000885,0,0
0:0:51.722,92.6698,11.7969,0,0.000885,0,0
0:0:54.528,98.6482,12.5622,0,0.000885,0,0
0:0:57.315,103.577,13.1897,0,0.000885,0,0
0:1:0.123,109.675,13.9619,0,0.000885,0,0
0:1:2.919,115.365,14.6858,0,0.000885,0,0
0:1:5.720,120.173,15.2995,0,0.000885,0,0
0:1:8.526,125.983,16.0372,0,0.000885,0,0
0:1:11.313,131.552,16.7474,0,0.000885,0,0
0:1:14.121,137.125,17.4575,0,0.000885,0,0
0:1:16.908,142.05,18.0849,0,0.000885,0,0
0:1:19.715,148.032,18.8503,0,0.000885,0,0
0:1:22.503,153.255,19.5122,0,0.000885,0,0
0:1:25.307,158.708,20.2085,0,0.000885,0,0
0:1:28.112,164.691,20.967,0,0.000885,0,0
0:1:30.903,169.557,21.5875,0,0.000885,0,0
0:1:33.725,175.367,22.3252,0,0.000885,0,0
0:1:36.506,181.172,23.0699,0,0.000885,0,0
0:1:39.321,186.509,23.7455,0,0.000885,0,0
0:1:42.102,192.079,24.4557,0,0.000885,0,0
0:1:44.908,197.83,25.1865,0,0.000885,0,0
0:1:47.704,202.403,25.7726,0,0.000885,0,0
0:1:50.502,208.15,26.5034,0,0.000885,0,0
0:1:53.305,213.955,27.2412,0,0.000885,0,0
0:1:56.103,219.529,27.9513,0,0.000885,0,0
0:1:58.910,224.924,28.6408,0,0.000885,0,0
0:2:1.689,230.378,29.3303,0,0.000885,0,0
0:2:4.503,235.951,30.0405,0,0.000885,0,0
0:2:7.303,241.463,30.7437,0,0.000885,0,0
0:2:10.106,246.801,31.4263,0,0.000885,0,0
0:2:12.915,252.254,32.1158,0,0.000885,0,0
0:2:15.710,257.828,32.8259,0,0.000885,0,0
0:2:18.505,263.459,33.543,0,0.000885,0,0
0:2:21.311,268.619,34.2049,0,0.000885,0,0
0:2:24.104,274.776,34.984,0,0.000885,0,0
0:2:26.893,280.113,35.6666,0,0.000885,0,0
0:2:29.693,284.984,36.2871,0,0.000885,0,0
0:2:32.502,291.025,37.0524,0,0.000885,0,0
0:2:35.307,296.127,37.7005,0,0.000885,0,0
0:2:38.106,301.816,38.4314,0,0.000885,0,0
0:2:40.908,307.506,39.1553,0,0.000885,0,0
0:2:43.708,313.137,39.8724,0,0.000885,0,0
0:2:46.510,318.061,40.4998,0,0.000885,0,0
0:2:49.309,323.986,41.2513,0,0.000885,0,0
0:2:52.100,329.44,41.9477,0,0.000885,0,0
0:2:54.902,334.835,42.6303,0,0.000885,0,0
0:2:57.712,340.058,43.2991,0,0.000885,0,0
0:3:0.504,345.805,44.0299,0,0.000885,0,0
0:3:3.319,351.903,44.809,0,0.000885,0,0
0:3:6.114,356.596,45.402,0,0.000885,0,0
0:3:8.903,362.637,46.1742,0,0.000885,0,0
0:3:11.709,368.148,46.8775,0,0.000885,0,0
0:3:14.509,373.544,47.56,0,0.000885,0,0
0:3:17.299,378.708,48.215,0,0.000885,0,0
0:3:20.111,384.22,48.9183,0,0.000885,0,0
0:3:22.917,389.851,49.6354,0,0.000885,0,0
0:3:25.701,395.54,50.3593,0,0.000885,0,0
0:3:28.505,400.878,51.0419,0,0.000885,0,0
0:3:31.301,406.212,51.7176,0,0.000885,0,0
0:3:34.125,411.727,52.4208,0,0.000885,0,0
0:3:36.904,417.239,53.1241,0,0.000885,0,0
0:3:39.716,423.048,53.8618,0,0.000885,0,0
0:3:42.512,428.324,54.5375,0,0.000885,0,0
0:3:45.320,434.364,55.3028,0,0.000885,0,0
0:3:48.119,439.293,55.9303,0,0.000885,0,0
0:3:50.910,444.747,56.6266,0,0.000885,0,0
0:3:53.719,450.436,57.3506,0,0.000885,0,0
0:3:56.505,455.48,57.9918,0,0.000885,0,0
0:3:59.314,461.343,58.7433,0,0.000885,0,0
0:4:2.112,466.623,59.4121,0,0.000885,0,0
0:4:4.909,472.139,60.1154,0,0.000885,0,0
0:4:7.709,478.001,60.86,0,0.000885,0,0
0:4:10.516,482.81,61.4737,0,0.000885,0,0
0:4:13.322,488.851,62.2459,0,0.000885,0,0
0:4:16.109,494.246,62.9284,0,0.000885,0,0
0:4:18.915,499.878,63.6455,0,0.000885,0,0
0:4:21.717,505.273,64.335,0,0.000885,0,0
0:4:24.520,511.372,65.1072,0,0.000885,0,0
0:4:27.326,516.888,65.8105,0,0.000885,0,0
0:4:30.119,522.048,66.4724,0,0.000885,0,0
0:4:32.917,527.559,67.1687,0,0.000885,0,0
0:4:35.721,533.191,67.8858,0,0.000885,0,0
0:4:38.529,537.826,68.4787,0,0.000885,0,0
0:4:41.305,543.982,69.2647,0,0.000885,0,0
0:4:44.127,549.026,69.9059,0,0.000885,0,0
0:4:46.922,554.893,70.6506,0,0.000885,0,0
0:4:49.711,560.231,71.3332,0,0.000885,0,0
0:4:52.517,566.272,72.0985,0,0.000885,0,0
0:4:55.323,571.138,72.719,0,0.000885,0,0
0:4:58.123,576.828,73.443,0,0.000885,0,0
0:5:0.907,582.633,74.1807,0,0.000885,0,0
0:5:3.729,587.913,74.8564,0,0.000885,0,0
0:5:6.511,592.961,75.4976,0,0.000885,0,0
0:5:9.325,598.949,76.2629,0,0.000885,0,0
0:5:12.112,604.407,76.9524,0,0.000885,0,0
0:5:14.926,609.629,77.6212,0,0.000885,0,0
0:5:17.730,615.091,78.3175,0,0.000885,0,0
0:5:20.517,620.785,79.0415,0,0.000885,0,0
0:5:23.326,626.185,79.731,0,0.000885,0,0
0:5:26.118,631.759,80.4411,0,0.000885,0,0
0:5:28.947,637.395,81.1582,0,0.000885,0,0
0:5:31.724,642.973,81.8683,0,0.000885,0,0
0:5:34.531,647.959,82.5027,0,0.000885,0,0
0:5:37.320,654.182,83.2956,0,0.000885,0,0
0:5:40.128,659.409,83.9575,0,0.000885,0,0
0:5:42.928,664.631,84.6263,0,0.000885,0,0
0:5:45.728,670.383,85.3571,0,0.000885,0,0
0:5:48.526,675.489,86.0052,0,0.000885,0,0
0:5:51.317,681.009,86.7085,0,0.000885,0,0
0:5:54.123,686.41,87.3979,0,0.000885,0,0
0:5:56.908,692.277,88.1426,0,0.000885,0,0
0:5:59.712,697.446,88.8045,0,0.000885,0,0
0:6:2.521,703.549,89.5767,0,0.000885,0,0
0:6:5.320,708.713,90.2386,0,0.000885,0,0
0:6:8.134,714.469,90.9694,0,0.000885,0,0
0:6:10.919,719.398,91.5969,0,0.000885,0,0
0:6:13.735,725.385,92.3622,0,0.000885,0,0
0:6:16.518,730.785,93.0447,0,0.000885,0,0
0:6:19.324,736.012,93.7135,0,0.000885,0,0
0:6:22.120,741.879,94.4582,0,0.000885,0,0
0:6:24.932,746.985,95.1063,0,0.000885,0,0
0:6:27.723,752.563,95.8164,0,0.000885,0,0
0:6:30.522,758.431,96.568,0,0.000885,0,0
0:6:33.343,763.715,97.2368,0,0.000885,0,0
0:6:36.124,768.822,97.8918,0,0.000885,0,0
0:6:38.940,774.515,98.6157,0,0.000885,0,0
0:6:41.736,780.036,99.319,0,0.000885,0,0
0:6:44.542,785.551,100.022,0,0.000885,0,0
0:6:47.319,791.654,100.794,0,0.000885,0,0
0:6:50.135,796.294,101.387,0,0.000885,0,0
0:6:52.941,801.988,102.111,0,0.000885,0,0
0:6:55.725,807.975,102.877,0,0.000885,0,0
0:6:58.537,812.846,103.497,0,0.000885,0,0
0:7:1.328,818.833,104.256,0,0.000885,0,0
0:7:4.148,824.002,104.918,0,0.000885,0,0
0:7:6.926,829.576,105.628,0,0.000885,0,0
0:7:9.740,834.802,106.29,0,0.000885,0,0
0:7:12.544,840.905,107.069,0,0.000885,0,0
0:7:15.336,846.012,107.717,0,0.000885,0,0
0:7:18.138,850.945,108.344,0,0.000885,0,0
0:7:20.922,857.106,109.13,0,0.000885,0,0
0:7:23.740,862.626,109.833,0,0.000885,0,0
0:7:26.536,867.79,110.488,0,0.000885,0,0
0:7:29.345,873.893,111.268,0,0.000885,0,0
0:7:32.117,878.884,111.902,0,0.000885,0,0
0:7:34.938,884.693,112.64,0,0.000885,0,0
0:7:37.743,890.387,113.37,0,0.000885,0,0
0:7:40.537,895.85,114.06,0,0.000885,0,0
0:7:43.334,901.25,114.749,0,0.000885,0,0
0:7:46.129,906.063,115.363,0,0.000885,0,0
0:7:48.942,912.05,116.128,0,0.000885,0,0
0:7:51.721,917.624,116.839,0,0.000885,0,0
0:7:54.545,923.144,117.535,0,0.000885,0,0
0:7:57.331,928.424,118.211,0,0.000885,0,0
0:8:0.146,934.238,118.948,0,0.000885,0,0
0:8:2.952,939.46,119.617,0,0.000885,0,0
0:8:5.740,945.038,120.327,0,0.000885,0,0
0:8:8.537,950.496,121.024,0,0.000885,0,0
0:8:11.318,956.132,121.741,0,0.000885,0,0
0:8:14.128,961.532,122.423,0,0.000885,0,0
0:8:16.907,966.932,123.113,0,0.000885,0,0
0:8:19.721,972.626,123.837,0,0.000885,0,0
0:8:22.509,978.262,124.554,0,0.000885,0,0
0:8:25.307,983.604,125.236,0,0.000885,0,0
0:8:28.099,989.12,125.94,0,0.000885,0,0
0:8:30.891,994.698,126.65,0,0.000885,0,0
0:8:33.688,1000.04,127.325,0,0.000885,0,0
0:8:36.470,1005.26,127.994,0,0.000885,0,0
0:8:39.275,1011.19,128.746,0,0.000885,0,0
0:8:42.050,1016.3,129.401,0,0.000885,0,0
0:8:44.856,1022.29,130.159,0,0.000885,0,0
0:8:47.648,1027.45,130.821,0,0.000885,0,0
0:8:50.449,1033.26,131.559,0,0.000885,0,0
0:8:53.260,1038.49,132.228,0,0.000885,0,0
0:8:56.052,1043.83,132.903,0,0.000885,0,0
0:8:58.855,1049.76,133.662,0,0.000885,0,0
0:9:1.635,1054.69,134.289,0,0.000885,0,0
0:9:4.438,1060.21,134.992,0,0.000885,0,0
0:9:7.238,1066.02,135.73,0,0.000885,0,0
0:9:10.041,1071.83,136.468,0,0.000885,0,0
0:9:12.852,1076.76,137.095,0,0.000885,0,0
0:9:15.651,1082.22,137.792,0,0.000885,0,0
0:9:18.454,1088.03,138.529,0,0.000885,0,0
0:9:21.231,1093.19,139.191,0,0.000885,0,0
0:9:24.035,1099.06,139.936,0,0.000885,0,0
0:9:26.845,1104.35,140.612,0,0.000885,0,0
0:9:29.652,1110.16,141.349,0,0.000885,0,0
0:9:32.439,1115.68,142.053,0,0.000885,0,0
0:9:35.251,1121.08,142.742,0,0.000885,0,0
0:9:38.050,1126.48,143.425,0,0.000885,0,0
0:9:40.831,1131.82,144.107,0,0.000885,0,0
0:9:43.638,1137.75,144.866,0,0.000885,0,0
0:9:46.416,1142.8,145.507,0,0.000885,0,0
0:9:49.222,1148.31,146.21,0,0.000885,0,0
0:9:52.004,1153.89,146.92,0,0.000885,0,0
0:9:54.804,1158.58,147.513,0,0.000885,0,0
0:9:57.598,1165.1,148.348,0,0.000885,0,0
0:10:0.388,1170.26,149.003,0,0.000885,0,0
0:10:3.187,1175.96,149.727,0,0.000885,0,0
0:10:5.974,1181.3,150.409,0,0.000885,0,0
0:10:8.777,1187.11,151.147,0,0.000885,0,0
0:10:11.559,1191.93,151.761,0,0.000885,0,0
0:10:14.363,1197.79,152.505,0,0.000885,0,0
0:10:17.154,1203.67,153.257,0,0.000885,0,0
0:10:19.949,1209.07,153.946,0,0.000885,0,0
0:10:22.749,1214.41,154.622,0,0.000885,0,0
0:10:25.543,1219.4,155.256,0,0.000885,0,0
0:10:28.347,1225.38,156.021,0,0.000885,0,0
0:10:31.146,1230.32,156.649,0,0.000885,0,0
0:10:33.956,1236.25,157.4,0,0.000885,0,0
0:10:36.747,1241.41,158.062,0,0.000885,0,0
0:10:39.558,1246.99,158.772,0,0.000885,0,0
0:10:42.346,1252.56,159.483,0,0.000885,0,0
0:10:45.151,1258.02,160.179,0,0.000885,0,0
0:10:47.960,1263.71,160.903,0,0.000885,0,0
0:10:50.754,1269,161.572,0,0.000885,0,0
0:10:53.571,1274.87,162.323,0,0.000885,0,0
0:10:56.359,1271.35,161.875,0,0.000885,0,0
0:10:58.135,1222.68,155.677,0,0.000885,0,0