File: DataFile2021-06-08_043212.csv
Test ID:,Date Tested:,Time:,Test Type:,Diameter Avg. (mm):,Cyl. Corr. Factor:,Height (mm):,Age (days):,Weight (kN):,Break Type:,Ramp Rate (MPa/s):,Load at Break (kN):,Stress at Break (MPa):
12,6/8/2021,04:32,Cylinder,100,1,200,0,3.6,3,0.24,1008.37,128.39
Sample Time,Load (kN),Stress (MPa),Long. Strain,Trans. Strain,Chan1 Deflection (mm),Chan2 Deflection (mm)
0:0:11.313,5.7471,0.730844,0,0.000885,0,0
0:0:13.497,10.907,1.38585,0,0.000885,0,0
0:0:15.679,12.375,1.5789,0,0.000885,0,0
0:0:17.889,18.0064,2.29595,0,0.000885,0,0
0:0:20.085,22.9929,2.93027,0,0.000885,0,0
0:0:22.284,27.0986,3.44738,0,0.000885,0,0
0:0:24.483,30.9107,3.93691,0,0.000885,0,0
0:0:26.673,35.8349,4.56433,0,0.000885,0,0
0:0:28.891,39.8249,5.06765,0,0.000885,0,0
0:0:31.078,43.9306,5.59165,0,0.000885,0,0
0:0:33.289,48.6813,6.19839,0,0.000885,0,0
0:0:35.480,52.6669,6.7086,0,0.000885,0,0
0:0:37.687,57.4755,7.31534,0,0.000885,0,0
0:0:39.879,60.8205,7.74281,0,0.000885,0,0
0:0:42.078,65.4556,8.33576,0,0.000885,0,0
0:0:44.283,70.0284,8.91492,0,0.000885,0,0
0:0:46.471,75.0726,9.55613,0,0.000885,0,0
0:0:48.685,78.3554,9.97671,0,0.000885,0,0
0:0:50.877,82.8748,10.549,0,0.000885,0,0
0:0:53.085,87.4476,11.135,0,0.000885,0,0
0:0:55.278,91.7312,11.6797,0,0.000885,0,0
0:0:57.487,96.0682,12.2313,0,0.000885,0,0
0:0:59.681,100.294,12.7691,0,0.000885,0,0
0:1:1.878,104.106,13.2517,0,0.000885,0,0
0:1:4.086,109.324,13.9205,0,0.000885,0,0
0:1:6.273,113.256,14.4169,0,0.000885,0,0
0:1:8.486,117.357,14.9409,0,0.000885,0,0
0:1:10.677,121.935,15.527,0,0.000885,0,0
0:1:12.886,126.276,16.0786,0,0.000885,0,0
0:1:15.075,129.852,16.5336,0,0.000885,0,0
0:1:17.277,135.07,17.1955,0,0.000885,0,0
0:1:19.480,139.354,17.7402,0,0.000885,0,0
0:1:21.674,143.05,18.2159,0,0.000885,0,0
0:1:23.879,147.917,18.8365,0,0.000885,0,0
0:1:26.068,151.787,19.326,0,0.000885,0,0
0:1:28.279,155.835,19.8431,0,0.000885,0,0
0:1:30.468,160.763,20.4705,0,0.000885,0,0
0:1:32.674,164.927,21.0014,0,0.000885,0,0
0:1:34.872,169.384,21.5668,0,0.000885,0,0
0:1:37.063,173.605,22.1046,0,0.000885,0,0
0:1:39.269,178.356,22.7113,0,0.000885,0,0
0:1:41.457,182.226,23.2009,0,0.000885,0,0
0:1:43.669,186.096,23.6973,0,0.000885,0,0
0:1:45.861,190.557,24.2627,0,0.000885,0,0
0:1:48.068,195.13,24.8418,0,0.000885,0,0
0:1:50.259,199.294,25.3727,0,0.000885,0,0
0:1:52.462,204.102,25.9863,0,0.000885,0,0
0:1:54.652,207.977,26.4828,0,0.000885,0,0
0:1:56.856,212.843,27.1033,0,0.000885,0,0
0:1:59.062,216.597,27.579,0,0.000885,0,0
0:2:1.261,220.703,28.103,0,0.000885,0,0
0:2:3.459,225.511,28.7098,0,0.000885,0,0
0:2:5.661,229.088,29.1717,0,0.000885,0,0
0:2:7.860,233.959,29.7854,0,0.000885,0,0
0:2:10.054,238.18,30.3231,0,0.000885,0,0
0:2:12.256,242.108,30.8265,0,0.000885,0,0
0:2:14.454,247.272,31.4815,0,0.000885,0,0
0:2:16.656,251.729,32.0537,0,0.000885,0,0
0:2:18.859,255.541,32.5364,0,0.000885,0,0
0:2:21.063,260.234,33.1362,0,0.000885,0,0
0:2:23.256,263.753,33.5844,0,0.000885,0,0
0:2:25.456,269.028,34.2532,0,0.000885,0,0
0:2:27.669,272.961,34.7565,0,0.000885,0,0
0:2:29.855,276.653,35.2253,0,0.000885,0,0
0:2:32.063,282.226,35.9355,0,0.000885,0,0
0:2:34.264,286.448,36.4733,0,0.000885,0,0
0:2:36.452,290.905,37.0386,0,0.000885,0,0
0:2:38.658,294.543,37.5006,0,0.000885,0,0
0:2:40.863,299.174,38.0935,0,0.000885,0,0
0:2:43.067,302.928,38.5693,0,0.000885,0,0
0:2:45.266,307.092,39.1002,0,0.000885,0,0
0:2:47.454,312.136,39.7414,0,0.000885,0,0
0:2:49.665,316.713,40.3274,0,0.000885,0,0
0:2:51.855,319.881,40.7273,0,0.000885,0,0
0:2:54.060,324.747,41.3479,0,0.000885,0,0
0:2:56.263,328.679,41.8512,0,0.000885,0,0
0:2:58.468,333.781,42.4993,0,0.000885,0,0
0:3:0.665,337.536,42.975,0,0.000885,0,0
0:3:2.873,341.521,43.4852,0,0.000885,0,0
0:3:5.065,345.92,44.0437,0,0.000885,0,0
0:3:7.270,350.613,44.6436,0,0.000885,0,0
0:3:9.460,354.835,45.1813,0,0.000885,0,0
0:3:11.662,359.118,45.726,0,0.000885,0,0
0:3:13.857,363.869,46.3259,0,0.000885,0,0
0:3:16.067,368.384,46.905,0,0.000885,0,0
0:3:18.271,372.432,47.4221,0,0.000885,0,0
0:3:20.466,376.36,47.9186,0,0.000885,0,0
0:3:22.666,381.23,48.5391,0,0.000885,0,0
0:3:24.868,385.625,49.0976,0,0.000885,0,0
0:3:27.071,390.025,49.6629,0,0.000885,0,0
0:3:29.252,393.543,50.1111,0,0.000885,0,0
0:3:31.466,397.417,50.6006,0,0.000885,0,0
0:3:33.664,402.813,51.2901,0,0.000885,0,0
0:3:35.871,406.919,51.8072,0,0.000885,0,0
0:3:38.068,411.14,52.345,0,0.000885,0,0
0:3:40.259,415.949,52.9586,0,0.000885,0,0
0:3:42.475,419.174,53.3723,0,0.000885,0,0
0:3:44.666,423.693,53.9446,0,0.000885,0,0
0:3:46.857,428.444,54.5513,0,0.000885,0,0
0:3:49.061,432.487,55.0684,0,0.000885,0,0
0:3:51.261,436.419,55.5648,0,0.000885,0,0
0:3:53.469,440.877,56.1371,0,0.000885,0,0
0:3:55.672,446.33,56.8266,0,0.000885,0,0
0:3:57.861,449.791,57.2679,0,0.000885,0,0
0:4:0.067,454.484,57.8677,0,0.000885,0,0
0:4:2.270,459.056,58.4469,0,0.000885,0,0
0:4:4.462,462.869,58.9364,0,0.000885,0,0
0:4:6.673,467.152,59.4811,0,0.000885,0,0
0:4:8.872,471.2,59.9982,0,0.000885,0,0
0:4:11.061,475.831,60.5842,0,0.000885,0,0
0:4:13.266,480.288,61.1496,0,0.000885,0,0
0:4:15.469,484.981,61.7494,0,0.000885,0,0
0:4:17.668,488.735,62.2252,0,0.000885,0,0
0:4:19.865,493.308,62.8112,0,0.000885,0,0
0:4:22.072,497.413,63.3352,0,0.000885,0,0
0:4:24.261,501.871,63.9006,0,0.000885,0,0
0:4:26.476,506.212,64.4522,0,0.000885,0,0
0:4:28.669,509.788,64.9072,0,0.000885,0,0
0:4:30.872,515.184,65.5967,0,0.000885,0,0
0:4:33.079,518.938,66.0725,0,0.000885,0,0
0:4:35.269,523.458,66.6516,0,0.000885,0,0
0:4:37.462,528.088,67.2377,0,0.000885,0,0
0:4:39.662,531.901,67.7272,0,0.000885,0,0
0:4:41.879,536.709,68.3339,0,0.000885,0,0
0:4:44.077,540.993,68.8786,0,0.000885,0,0
0:4:46.267,545.334,69.4371,0,0.000885,0,0
0:4:48.477,549.378,69.9473,0,0.000885,0,0
0:4:50.672,553.719,70.4989,0,0.000885,0,0
0:4:52.883,558.061,71.0574,0,0.000885,0,0
0:4:55.067,562.518,71.6227,0,0.000885,0,0
0:4:57.274,566.739,72.1605,0,0.000885,0,0
0:4:59.468,571.138,72.719,0,0.000885,0,0
0:5:1.661,574.95,73.2016,0,0.000885,0,0
0:5:3.880,579.817,73.8222,0,0.000885,0,0
0:5:6.069,583.922,74.3462,0,0.000885,0,0
0:5:8.274,587.797,74.8426,0,0.000885,0,0
0:5:10.464,592.432,75.4286,0,0.000885,0,0
0:5:12.680,596.773,75.9802,0,0.000885,0,0
0:5:14.875,601.177,76.5456,0,0.000885,0,0
0:5:17.079,605.287,77.0696,0,0.000885,0,0
0:5:19.278,609.749,77.635,0,0.000885,0,0
0:5:21.470,614.148,78.1934,0,0.000885,0,0
0:5:23.683,618.61,78.7657,0,0.000885,0,0
0:5:25.874,622.893,79.3104,0,0.000885,0,0
0:5:28.088,627.181,79.8551,0,0.000885,0,0
0:5:30.283,631.759,80.4411,0,0.000885,0,0
0:5:32.485,635.633,80.9307,0,0.000885,0,0
0:5:34.672,640.21,81.5167,0,0.000885,0,0
0:5:36.882,644.263,82.0269,0,0.000885,0,0
0:5:39.080,648.488,82.5647,0,0.000885,0,0
0:5:41.273,653.244,83.1715,0,0.000885,0,0
0:5:43.479,657.527,83.7161,0,0.000885,0,0
0:5:45.668,661.811,84.2677,0,0.000885,0,0
0:5:47.873,666.272,84.8331,0,0.000885,0,0
0:5:50.062,669.973,85.3019,0,0.000885,0,0
0:5:52.281,674.551,85.888,0,0.000885,0,0
0:5:54.481,678.834,86.4327,0,0.000885,0,0
0:5:56.677,683.709,87.0532,0,0.000885,0,0
0:5:58.878,687.757,87.5703,0,0.000885,0,0
0:6:1.081,691.396,88.0323,0,0.000885,0,0
0:6:3.287,696.445,88.6735,0,0.000885,0,0
0:6:5.475,701.022,89.2595,0,0.000885,0,0
0:6:7.689,705.31,89.8042,0,0.000885,0,0
0:6:9.881,709.184,90.2937,0,0.000885,0,0
0:6:12.088,713.526,90.8522,0,0.000885,0,0
0:6:14.289,717.814,91.3969,0,0.000885,0,0
0:6:16.471,721.275,91.8382,0,0.000885,0,0
0:6:18.674,726.501,92.5001,0,0.000885,0,0
0:6:20.881,731.194,93.0999,0,0.000885,0,0
0:6:23.099,735.069,93.5894,0,0.000885,0,0
0:6:25.281,739.357,94.1341,0,0.000885,0,0
0:6:27.481,743.934,94.7202,0,0.000885,0,0
0:6:29.683,747.808,95.2166,0,0.000885,0,0
0:6:31.887,752.443,95.8027,0,0.000885,0,0
0:6:34.088,756.496,96.3198,0,0.000885,0,0
0:6:36.281,760.779,96.8644,0,0.000885,0,0
0:6:38.498,765.299,97.4436,0,0.000885,0,0
0:6:40.685,769.467,97.9745,0,0.000885,0,0
0:6:42.891,774.28,98.5812,0,0.000885,0,0
0:6:45.085,778.506,99.1259,0,0.000885,0,0
0:6:47.275,782.909,99.6844,0,0.000885,0,0
0:6:49.474,786.312,100.119,0,0.000885,0,0
0:6:51.668,791.245,100.746,0,0.000885,0,0
0:6:53.887,795.88,101.332,0,0.000885,0,0
0:6:56.074,799.403,101.78,0,0.000885,0,0
0:6:58.288,804.274,102.401,0,0.000885,0,0
0:7:0.469,808.148,102.897,0,0.000885,0,0
0:7:2.680,812.961,103.511,0,0.000885,0,0
0:7:4.873,816.778,103.994,0,0.000885,0,0
0:7:7.082,821.355,104.58,0,0.000885,0,0
0:7:9.290,825.995,105.166,0,0.000885,0,0
0:7:11.476,829.927,105.669,0,0.000885,0,0
0:7:13.680,834.74,106.283,0,0.000885,0,0
0:7:15.876,839.495,106.889,0,0.000885,0,0
0:7:18.084,843.312,107.372,0,0.000885,0,0
0:7:20.280,847.36,107.889,0,0.000885,0,0
0:7:22.491,852.235,108.51,0,0.000885,0,0
0:7:24.690,856.518,109.054,0,0.000885,0,0
0:7:26.879,860.099,109.509,0,0.000885,0,0
0:7:29.082,864.797,110.109,0,0.000885,0,0
0:7:31.277,869.254,110.675,0,0.000885,0,0
0:7:33.496,874.129,111.295,0,0.000885,0,0
0:7:35.685,877.71,111.75,0,0.000885,0,0
0:7:37.892,881.758,112.267,0,0.000885,0,0
0:7:40.084,886.277,112.846,0,0.000885,0,0
0:7:42.278,890.503,113.384,0,0.000885,0,0
0:7:44.471,895.2,113.977,0,0.000885,0,0
0:7:46.653,899.777,114.563,0,0.000885,0,0
0:7:48.859,903.3,115.011,0,0.000885,0,0
0:7:51.042,908.056,115.618,0,0.000885,0,0
0:7:53.253,912.695,116.211,0,0.000885,0,0
0:7:55.433,916.098,116.639,0,0.000885,0,0
0:7:57.630,920.969,117.259,0,0.000885,0,0
0:7:59.824,924.492,117.707,0,0.000885,0,0
0:8:2.019,929.714,118.376,0,0.000885,0,0
0:8:4.208,933.237,118.824,0,0.000885,0,0
0:8:6.399,938.286,119.465,0,0.000885,0,0
0:8:8.609,942.511,120.003,0,0.000885,0,0
0:8:10.787,946.386,120.5,0,0.000885,0,0
0:8:12.992,951.55,121.155,0,0.000885,0,0
0:8:15.185,955.838,121.699,0,0.000885,0,0
0:8:17.387,960.238,122.265,0,0.000885,0,0
0:8:19.584,963.587,122.685,0,0.000885,0,0
0:8:21.782,967.986,123.251,0,0.000885,0,0
0:8:23.990,972.862,123.871,0,0.000885,0,0
0:8:26.190,975.793,124.244,0,0.000885,0,0
0:8:28.405,981.193,124.933,0,0.000885,0,0
0:8:30.596,985.188,125.436,0,0.000885,0,0
0:8:32.800,990.588,126.126,0,0.000885,0,0
0:8:34.996,994.698,126.65,0,0.000885,0,0
0:8:37.206,997.865,127.05,0,0.000885,0,0
0:8:39.399,1003.39,127.753,0,0.000885,0,0
0:8:41.591,1006.2,128.111,0,0.000885,0,0
0:8:42.590,751.447,95.6785,0,0.000885,0,0