File: DataFile2021-06-24_053022.csv
Test ID:,Date Tested:,Time:,Test Type:,Diameter Avg. (mm):,Cyl. Corr. Factor:,Height (mm):,Age (days):,Weight (kN):,Break Type:,Ramp Rate (MPa/s):,Load at Break (kN):,Stress at Break (MPa):
12,6/24/2021,05:30,Cylinder,150,1,300,0,3.6,3,0.25,1407.41,79.64
Sample Time,Load (kN),Stress (MPa),Long. Strain,Trans. Strain,Chan1 Deflection (mm),Chan2 Deflection (mm)
0:0:17.960,6.5122,0.365422,0,0.000885,0,0
0:0:19.358,12.6685,0.717055,0,0.000885,0,0
0:0:20.761,17.1835,0.972161,0,0.000885,0,0
0:0:22.163,22.5792,1.27553,0,0.000885,0,0
0:0:23.572,31.9649,1.80643,0,0.000885,0,0
0:0:24.982,37.4184,2.11669,0,0.000885,0,0
0:0:26.378,41.8756,2.3718,0,0.000885,0,0
0:0:27.771,49.1484,2.77859,0,0.000885,0,0
0:0:29.179,55.0734,3.11643,0,0.000885,0,0
0:0:30.583,60.7627,3.44048,0,0.000885,0,0
0:0:31.979,68.0934,3.85417,0,0.000885,0,0
0:0:33.370,73.3111,4.15064,0,0.000885,0,0
0:0:34.784,80.2904,4.54365,0,0.000885,0,0
0:0:36.181,85.9797,4.8677,0,0.000885,0,0
0:0:37.574,92.434,5.23312,0,0.000885,0,0
0:0:38.984,98.7683,5.59165,0,0.000885,0,0
0:0:40.384,104.044,5.88812,0,0.000885,0,0
0:0:41.780,110.908,6.27423,0,0.000885,0,0
0:0:43.179,116.833,6.61207,0,0.000885,0,0
0:0:44.594,123.282,6.97749,0,0.000885,0,0
0:0:45.986,128.505,7.27397,0,0.000885,0,0
0:0:47.383,136.071,7.70144,0,0.000885,0,0
0:0:48.792,141.76,8.0186,0,0.000885,0,0
0:0:50.197,147.33,8.33576,0,0.000885,0,0
0:0:51.590,154.309,8.72876,0,0.000885,0,0
0:0:52.984,159.998,9.05282,0,0.000885,0,0
0:0:54.397,166.097,9.39755,0,0.000885,0,0
0:0:55.799,172.96,9.79056,0,0.000885,0,0
0:0:57.190,178.472,10.1008,0,0.000885,0,0
0:0:58.590,184.045,10.418,0,0.000885,0,0
0:1:0.003,191.082,10.811,0,0.000885,0,0
0:1:1.392,197.359,11.1695,0,0.000885,0,0
0:1:2.773,203.048,11.4936,0,0.000885,0,0
0:1:4.173,209.56,11.859,0,0.000885,0,0
0:1:5.571,216.126,12.2313,0,0.000885,0,0
0:1:6.963,221.406,12.5278,0,0.000885,0,0
0:1:8.363,228.034,12.907,0,0.000885,0,0
0:1:9.770,234.541,13.2724,0,0.000885,0,0
0:1:11.157,239.937,13.5758,0,0.000885,0,0
0:1:12.562,246.916,13.9757,0,0.000885,0,0
0:1:13.970,252.841,14.3066,0,0.000885,0,0
0:1:15.362,258.651,14.6376,0,0.000885,0,0
0:1:16.767,265.452,15.0237,0,0.000885,0,0
0:1:18.158,271.141,15.3408,0,0.000885,0,0
0:1:19.566,277.182,15.6856,0,0.000885,0,0
0:1:20.957,284.219,16.0855,0,0.000885,0,0
0:1:22.365,289.321,16.375,0,0.000885,0,0
0:1:23.770,296.656,16.7887,0,0.000885,0,0
0:1:25.168,302.635,17.1266,0,0.000885,0,0
0:1:26.569,308.796,17.4713,0,0.000885,0,0
0:1:27.965,315.072,17.8298,0,0.000885,0,0
0:1:29.367,320.993,18.1677,0,0.000885,0,0
0:1:30.764,326.86,18.4986,0,0.000885,0,0
0:1:32.167,333.723,18.8847,0,0.000885,0,0
0:1:33.566,339.47,19.2088,0,0.000885,0,0
0:1:34.969,345.16,19.5328,0,0.000885,0,0
0:1:36.359,352.312,19.9396,0,0.000885,0,0
0:1:37.765,357.415,20.2223,0,0.000885,0,0
0:1:39.168,364.042,20.6015,0,0.000885,0,0
0:1:40.567,370.906,20.9876,0,0.000885,0,0
0:1:41.969,376.186,21.291,0,0.000885,0,0
0:1:43.367,382.694,21.6564,0,0.000885,0,0
0:1:44.774,388.499,21.9874,0,0.000885,0,0
0:1:46.166,394.953,22.3528,0,0.000885,0,0
0:1:47.568,401.345,22.7113,0,0.000885,0,0
0:1:48.976,407.386,23.0561,0,0.000885,0,0
0:1:50.372,413.253,23.387,0,0.000885,0,0
0:1:51.771,419.058,23.7111,0,0.000885,0,0
0:1:53.166,426.504,24.1385,0,0.000885,0,0
0:1:54.577,432.078,24.4488,0,0.000885,0,0
0:1:55.965,438.003,24.7867,0,0.000885,0,0
0:1:57.366,444.569,25.159,0,0.000885,0,0
0:1:58.774,450.845,25.5106,0,0.000885,0,0
0:2:0.171,457.237,25.876,0,0.000885,0,0
0:2:1.560,463.22,26.2139,0,0.000885,0,0
0:2:2.966,468.972,26.5379,0,0.000885,0,0
0:2:4.371,475.657,26.9171,0,0.000885,0,0
0:2:5.769,481.52,27.2481,0,0.000885,0,0
0:2:7.171,487.912,27.6135,0,0.000885,0,0
0:2:8.557,493.953,27.9513,0,0.000885,0,0
0:2:9.963,500.407,28.3168,0,0.000885,0,0
0:2:11.374,506.506,28.6615,0,0.000885,0,0
0:2:12.769,513.133,29.0407,0,0.000885,0,0
0:2:14.173,518.178,29.3234,0,0.000885,0,0
0:2:15.572,524.686,29.6888,0,0.000885,0,0
0:2:16.962,531.433,30.0749,0,0.000885,0,0
0:2:18.373,537.826,30.4335,0,0.000885,0,0
0:2:19.776,543.043,30.7299,0,0.000885,0,0
0:2:21.169,549.556,31.0954,0,0.000885,0,0
0:2:22.570,555.303,31.4263,0,0.000885,0,0
0:2:23.964,561.637,31.7848,0,0.000885,0,0
0:2:25.359,568.732,32.1847,0,0.000885,0,0
0:2:26.761,574.483,32.5088,0,0.000885,0,0
0:2:28.165,580.991,32.8742,0,0.000885,0,0
0:2:29.578,587.152,33.2258,0,0.000885,0,0
0:2:30.973,592.783,33.543,0,0.000885,0,0
0:2:32.360,599.3,33.9153,0,0.000885,0,0
0:2:33.777,605.287,34.2532,0,0.000885,0,0
0:2:35.181,611.159,34.5841,0,0.000885,0,0
0:2:36.566,617.907,34.9633,0,0.000885,0,0
0:2:37.970,624.072,35.3149,0,0.000885,0,0
0:2:39.379,630.175,35.6597,0,0.000885,0,0
0:2:40.775,636.75,36.032,0,0.000885,0,0
0:2:42.172,642.443,36.3561,0,0.000885,0,0
0:2:43.577,648.902,36.7215,0,0.000885,0,0
0:2:44.988,654.769,37.0524,0,0.000885,0,0
0:2:46.375,660.463,37.3765,0,0.000885,0,0
0:2:47.766,667.389,37.7695,0,0.000885,0,0
0:2:49.177,673.67,38.1211,0,0.000885,0,0
0:2:50.573,679.426,38.4452,0,0.000885,0,0
0:2:51.959,685.529,38.7899,0,0.000885,0,0
0:2:53.363,691.925,39.1553,0,0.000885,0,0
0:2:54.776,697.855,39.4932,0,0.000885,0,0
0:2:56.175,704.665,39.8793,0,0.000885,0,0
0:2:57.576,710.595,40.2102,0,0.000885,0,0
0:2:58.976,716.404,40.5412,0,0.000885,0,0
0:3:0.381,723.45,40.9411,0,0.000885,0,0
0:3:1.765,728.499,41.2238,0,0.000885,0,0
0:3:3.168,735.131,41.603,0,0.000885,0,0
0:3:4.587,741.527,41.9615,0,0.000885,0,0
0:3:5.984,746.928,42.2649,0,0.000885,0,0
0:3:7.370,753.386,42.6303,0,0.000885,0,0
0:3:8.778,760.192,43.0164,0,0.000885,0,0
0:3:10.179,765.77,43.3335,0,0.000885,0,0
0:3:11.566,772.167,43.699,0,0.000885,0,0
0:3:12.976,778.919,44.0782,0,0.000885,0,0
0:3:14.391,784.964,44.4229,0,0.000885,0,0
0:3:15.788,790.364,44.7263,0,0.000885,0,0
0:3:17.174,797.526,45.1331,0,0.000885,0,0
0:3:18.580,803.865,45.4916,0,0.000885,0,0
0:3:19.992,810.559,45.8708,0,0.000885,0,0
0:3:21.381,816.427,46.2018,0,0.000885,0,0
0:3:22.766,821.24,46.4707,0,0.000885,0,0
0:3:24.172,827.698,46.8361,0,0.000885,0,0
0:3:25.576,834.331,47.2153,0,0.000885,0,0
0:3:26.970,840.26,47.5462,0,0.000885,0,0
0:3:28.367,846.247,47.891,0,0.000885,0,0
0:3:29.777,852.88,48.2633,0,0.000885,0,0
0:3:31.166,858.809,48.6011,0,0.000885,0,0
0:3:32.572,864.739,48.9321,0,0.000885,0,0
0:3:33.978,870.784,49.2768,0,0.000885,0,0
0:3:35.381,877.301,49.6423,0,0.000885,0,0
0:3:36.769,884.462,50.049,0,0.000885,0,0
0:3:38.176,890.801,50.4076,0,0.000885,0,0
0:3:39.588,895.907,50.6972,0,0.000885,0,0
0:3:40.983,902.424,51.0695,0,0.000885,0,0
0:3:42.370,908.469,51.4073,0,0.000885,0,0
0:3:43.778,914.279,51.7383,0,0.000885,0,0
0:3:45.188,920.911,52.1106,0,0.000885,0,0
0:3:46.578,927.312,52.476,0,0.000885,0,0
0:3:47.978,933.063,52.8001,0,0.000885,0,0
0:3:49.394,939.402,53.1586,0,0.000885,0,0
0:3:50.791,945.51,53.5033,0,0.000885,0,0
0:3:52.183,951.612,53.8481,0,0.000885,0,0
0:3:53.584,957.951,54.2066,0,0.000885,0,0
0:3:54.987,964.41,54.572,0,0.000885,0,0
0:3:56.379,970.277,54.9098,0,0.000885,0,0
0:3:57.781,976.616,55.2684,0,0.000885,0,0
0:3:59.187,982.603,55.6062,0,0.000885,0,0
0:4:0.582,989.178,55.9785,0,0.000885,0,0
0:4:1.972,994.992,56.3026,0,0.000885,0,0
0:4:3.373,1000.98,56.6404,0,0.000885,0,0
0:4:4.787,1007.32,57.0059,0,0.000885,0,0
0:4:6.185,1013.48,57.3506,0,0.000885,0,0
0:4:7.579,1019.35,57.6815,0,0.000885,0,0
0:4:8.975,1026.22,58.0745,0,0.000885,0,0
0:4:10.380,1031.74,58.3848,0,0.000885,0,0
0:4:11.772,1038.49,58.764,0,0.000885,0,0
0:4:13.172,1044.71,59.1156,0,0.000885,0,0
0:4:14.587,1050.35,59.4397,0,0.000885,0,0
0:4:15.973,1056.51,59.7844,0,0.000885,0,0
0:4:17.368,1063.14,60.1637,0,0.000885,0,0
0:4:18.780,1068.89,60.4877,0,0.000885,0,0
0:4:20.181,1075.94,60.8876,0,0.000885,0,0
0:4:21.573,1081.34,61.191,0,0.000885,0,0
0:4:22.972,1087.56,61.5426,0,0.000885,0,0
0:4:24.377,1094.25,61.9218,0,0.000885,0,0
0:4:25.772,1100.12,62.2528,0,0.000885,0,0
0:4:27.164,1106.05,62.5906,0,0.000885,0,0
0:4:28.576,1113.51,63.0112,0,0.000885,0,0
0:4:29.976,1118.55,63.2939,0,0.000885,0,0
0:4:31.369,1124.84,63.6524,0,0.000885,0,0
0:4:32.783,1131.88,64.0523,0,0.000885,0,0
0:4:34.187,1137.1,64.3488,0,0.000885,0,0
0:4:35.582,1143.38,64.7004,0,0.000885,0,0
0:4:36.983,1149.78,65.0658,0,0.000885,0,0
0:4:38.385,1155.65,65.3968,0,0.000885,0,0
0:4:39.796,1162.34,65.776,0,0.000885,0,0
0:4:41.187,1168.09,66.1,0,0.000885,0,0
0:4:42.579,1174.02,66.4379,0,0.000885,0,0
0:4:43.987,1179.78,66.7619,0,0.000885,0,0
0:4:45.391,1186.47,67.1411,0,0.000885,0,0
0:4:46.783,1192.46,67.479,0,0.000885,0,0
0:4:48.173,1199.56,67.8789,0,0.000885,0,0
0:4:49.589,1205.19,68.2029,0,0.000885,0,0
0:4:50.984,1211.18,68.5408,0,0.000885,0,0
0:4:52.388,1218.05,68.9269,0,0.000885,0,0
0:4:53.788,1223.56,69.2372,0,0.000885,0,0
0:4:55.189,1230.14,69.6095,0,0.000885,0,0
0:4:56.579,1236.07,69.9473,0,0.000885,0,0
0:4:57.980,1242.7,70.3196,0,0.000885,0,0
0:4:59.396,1248.39,70.6437,0,0.000885,0,0
0:5:0.790,1255.44,71.0436,0,0.000885,0,0
0:5:2.189,1260.66,71.3401,0,0.000885,0,0
0:5:3.577,1266.06,71.6434,0,0.000885,0,0
0:5:4.991,1273.81,72.0847,0,0.000885,0,0
0:5:6.389,1279.62,72.4087,0,0.000885,0,0
0:5:7.778,1286.31,72.788,0,0.000885,0,0
0:5:9.182,1292.19,73.1258,0,0.000885,0,0
0:5:10.576,1298.05,73.4567,0,0.000885,0,0
0:5:11.987,1304.69,73.8291,0,0.000885,0,0
0:5:13.386,1310.97,74.1876,0,0.000885,0,0
0:5:14.796,1316.72,74.5116,0,0.000885,0,0
0:5:16.193,1323.23,74.8771,0,0.000885,0,0
0:5:17.582,1328.81,75.1942,0,0.000885,0,0
0:5:19.002,1335.45,75.5734,0,0.000885,0,0
0:5:20.402,1339.44,75.7941,0,0.000885,0,0
0:5:21.791,1347.77,76.2698,0,0.000885,0,0
0:5:23.191,1353.41,76.587,0,0.000885,0,0
0:5:24.602,1360.45,76.9869,0,0.000885,0,0
0:5:25.989,1363.56,77.1592,0,0.000885,0,0
0:5:27.391,1370.9,77.5798,0,0.000885,0,0
0:5:28.789,1379.24,78.0487,0,0.000885,0,0
0:5:30.192,1386.22,78.4417,0,0.000885,0,0
0:5:31.594,1392.32,78.7864,0,0.000885,0,0
0:5:32.983,1397.2,79.0622,0,0.000885,0,0
0:5:34.390,1402.95,79.3931,0,0.000885,0,0
0:5:35.785,1405.71,79.5448,0,0.000885,0,0
0:5:37.127,1241.7,70.2645,0,0.000885,0,0