File: DataFile2021-06-29_073530.csv
Test ID:,Date Tested:,Time:,Test Type:,Diameter Avg. (mm):,Cyl. Corr. Factor:,Height (mm):,Age (days):,Weight (kN):,Break Type:,Ramp Rate (MPa/s):,Load at Break (kN):,Stress at Break (MPa):
12,6/29/2021,07:35,Cylinder,150,1,300,0,3.6,3,0.24,646.02,36.56
Sample Time,Load (kN),Stress (MPa),Long. Strain,Trans. Strain,Chan1 Deflection (mm),Chan2 Deflection (mm)
0:0:19.948,5.15994,0.28958,0,0.000885,0,0
0:0:20.655,13.6649,0.772213,0,0.000885,0,0
0:0:21.348,12.9043,0.730844,0,0.000885,0,0
0:0:22.050,13.3714,0.758423,0,0.000885,0,0
0:0:22.757,16.1871,0.917003,0,0.000885,0,0
0:0:23.451,19.412,1.09627,0,0.000885,0,0
0:0:24.147,22.9306,1.29621,0,0.000885,0,0
0:0:24.847,27.0986,1.53064,0,0.000885,0,0
0:0:25.556,31.0263,1.75816,0,0.000885,0,0
0:0:26.265,34.9541,1.9788,0,0.000885,0,0
0:0:26.972,36.7156,2.07532,0,0.000885,0,0
0:0:27.666,39.002,2.20632,0,0.000885,0,0
0:0:28.366,41.9334,2.3718,0,0.000885,0,0
0:0:29.063,45.2206,2.55795,0,0.000885,0,0
0:0:29.757,48.6191,2.75101,0,0.000885,0,0
0:0:30.458,52.5513,2.97164,0,0.000885,0,0
0:0:31.167,55.4248,3.13711,0,0.000885,0,0
0:0:31.874,58.2984,3.29569,0,0.000885,0,0
0:0:32.574,60.6426,3.43359,0,0.000885,0,0
0:0:33.266,63.9298,3.61975,0,0.000885,0,0
0:0:33.964,67.742,3.83349,0,0.000885,0,0
0:0:34.665,70.6733,3.99896,0,0.000885,0,0
0:0:35.366,73.1377,4.13685,0,0.000885,0,0
0:0:36.074,76.3048,4.31612,0,0.000885,0,0
0:0:36.779,79.4719,4.49538,0,0.000885,0,0
0:0:37.473,82.9326,4.69533,0,0.000885,0,0
0:0:38.174,85.9218,4.8608,0,0.000885,0,0
0:0:38.870,88.9733,5.03317,0,0.000885,0,0
0:0:39.565,92.1405,5.21244,0,0.000885,0,0
0:0:40.266,95.014,5.37791,0,0.000885,0,0
0:0:40.975,97.7096,5.5296,0,0.000885,0,0
0:0:41.682,101.7,5.75712,0,0.000885,0,0
0:0:42.381,104.573,5.9157,0,0.000885,0,0
0:0:43.076,107.038,6.06049,0,0.000885,0,0
0:0:43.773,110.556,6.25354,0,0.000885,0,0
0:0:44.471,113.372,6.41212,0,0.000885,0,0
0:0:45.165,116.245,6.5776,0,0.000885,0,0
0:0:45.874,120.173,6.79823,0,0.000885,0,0
0:0:46.582,123.047,6.9637,0,0.000885,0,0
0:0:47.281,125.747,7.11539,0,0.000885,0,0
0:0:47.980,129.092,7.30155,0,0.000885,0,0
0:0:48.676,132.023,7.47392,0,0.000885,0,0
0:0:49.375,135.893,7.68765,0,0.000885,0,0
0:0:50.073,138.237,7.82555,0,0.000885,0,0
0:0:50.773,141.467,8.00481,0,0.000885,0,0
0:0:51.483,144.572,8.18408,0,0.000885,0,0
0:0:52.189,147.507,8.34955,0,0.000885,0,0
0:0:52.883,150.612,8.52192,0,0.000885,0,0
0:0:53.582,154.429,8.73566,0,0.000885,0,0
0:0:54.278,157.182,8.89424,0,0.000885,0,0
0:0:54.973,160.056,9.05971,0,0.000885,0,0
0:0:55.682,163.343,9.24587,0,0.000885,0,0
0:0:56.388,166.039,9.39755,0,0.000885,0,0
0:0:57.089,169.557,9.5975,0,0.000885,0,0
0:0:57.789,172.079,9.7354,0,0.000885,0,0
0:0:58.484,175.598,9.93535,0,0.000885,0,0
0:0:59.183,178.707,10.1146,0,0.000885,0,0
0:0:59.881,181.581,10.2732,0,0.000885,0,0
0:1:0.582,184.223,10.4249,0,0.000885,0,0
0:1:1.293,187.915,10.6317,0,0.000885,0,0
0:1:1.996,191.434,10.8317,0,0.000885,0,0
0:1:2.689,194.485,11.004,0,0.000885,0,0
0:1:3.386,197.243,11.1626,0,0.000885,0,0
0:1:4.076,200.232,11.3281,0,0.000885,0,0
0:1:4.766,202.754,11.4729,0,0.000885,0,0
0:1:5.462,206.393,11.6797,0,0.000885,0,0
0:1:6.166,209.734,11.8659,0,0.000885,0,0
0:1:6.868,212.492,12.0245,0,0.000885,0,0
0:1:7.562,215.249,12.183,0,0.000885,0,0
0:1:8.253,218.768,12.383,0,0.000885,0,0
0:1:8.953,220.997,12.5071,0,0.000885,0,0
0:1:9.646,225.04,12.7346,0,0.000885,0,0
0:1:10.343,227.856,12.8932,0,0.000885,0,0
0:1:11.048,231.023,13.0725,0,0.000885,0,0
0:1:11.746,234.074,13.2448,0,0.000885,0,0
0:1:12.456,237.651,13.4517,0,0.000885,0,0
0:1:13.151,240.293,13.5965,0,0.000885,0,0
0:1:13.853,243.634,13.7895,0,0.000885,0,0
0:1:14.540,246.801,13.9688,0,0.000885,0,0
0:1:15.235,249.674,14.1274,0,0.000885,0,0
0:1:15.939,252.49,14.2859,0,0.000885,0,0
0:1:16.640,256.008,14.4859,0,0.000885,0,0
0:1:17.335,258.824,14.6445,0,0.000885,0,0
0:1:18.043,261.231,14.7824,0,0.000885,0,0
0:1:18.745,265.51,15.0237,0,0.000885,0,0
0:1:19.451,268.09,15.1685,0,0.000885,0,0
0:1:20.137,271.377,15.3546,0,0.000885,0,0
0:1:20.843,274.193,15.5132,0,0.000885,0,0
0:1:21.545,277.066,15.6787,0,0.000885,0,0
0:1:22.237,280.349,15.8648,0,0.000885,0,0
0:1:22.954,283.81,16.0579,0,0.000885,0,0
0:1:23.644,286.39,16.2096,0,0.000885,0,0
0:1:24.353,289.735,16.3957,0,0.000885,0,0
0:1:25.046,292.902,16.575,0,0.000885,0,0
0:1:25.741,295.776,16.7405,0,0.000885,0,0
0:1:26.447,299.058,16.9266,0,0.000885,0,0
0:1:27.147,302.461,17.1128,0,0.000885,0,0
0:1:27.858,305.099,17.2645,0,0.000885,0,0
0:1:28.549,308.324,17.4506,0,0.000885,0,0
0:1:29.255,311.376,17.623,0,0.000885,0,0
0:1:29.953,315.072,17.8298,0,0.000885,0,0
0:1:30.658,317.888,17.9884,0,0.000885,0,0
0:1:31.360,320.877,18.1608,0,0.000885,0,0
0:1:32.056,323.75,18.3194,0,0.000885,0,0
0:1:32.758,326.86,18.4986,0,0.000885,0,0
0:1:33.459,329.618,18.6503,0,0.000885,0,0
0:1:34.148,332.843,18.8365,0,0.000885,0,0
0:1:34.854,335.952,19.0088,0,0.000885,0,0
0:1:35.560,338.825,19.1743,0,0.000885,0,0
0:1:36.265,342.518,19.3812,0,0.000885,0,0
0:1:36.965,346.156,19.588,0,0.000885,0,0
0:1:37.654,348.62,19.7259,0,0.000885,0,0
0:1:38.357,351.845,19.9121,0,0.000885,0,0
0:1:39.049,354.892,20.0844,0,0.000885,0,0
0:1:39.738,357.183,20.2154,0,0.000885,0,0
0:1:40.433,360.582,20.4016,0,0.000885,0,0
0:1:41.139,364.1,20.6015,0,0.000885,0,0
0:1:41.841,366.8,20.7532,0,0.000885,0,0
0:1:42.547,370.906,20.9876,0,0.000885,0,0
0:1:43.246,373.837,21.1531,0,0.000885,0,0
0:1:43.940,376.36,21.2979,0,0.000885,0,0
0:1:44.642,379.233,21.4634,0,0.000885,0,0
0:1:45.347,382.227,21.6289,0,0.000885,0,0
0:1:46.052,385.861,21.8357,0,0.000885,0,0
0:1:46.751,388.912,22.0081,0,0.000885,0,0
0:1:47.440,392.195,22.1942,0,0.000885,0,0
0:1:48.145,394.833,22.3459,0,0.000885,0,0
0:1:48.856,398.53,22.5528,0,0.000885,0,0
0:1:49.555,400.758,22.6769,0,0.000885,0,0
0:1:50.261,404.161,22.8699,0,0.000885,0,0
0:1:50.968,407.27,23.0492,0,0.000885,0,0
0:1:51.667,410.086,23.2078,0,0.000885,0,0
0:1:52.361,413.311,23.387,0,0.000885,0,0
0:1:53.060,416.358,23.5594,0,0.000885,0,0
0:1:53.751,419.294,23.7249,0,0.000885,0,0
0:1:54.457,423.279,23.9524,0,0.000885,0,0
0:1:55.143,426.682,24.1454,0,0.000885,0,0
0:1:55.846,429.204,24.2902,0,0.000885,0,0
0:1:56.549,431.784,24.435,0,0.000885,0,0
0:1:57.251,434.836,24.6074,0,0.000885,0,0
0:1:57.959,438.412,24.8073,0,0.000885,0,0
0:1:58.648,441.228,24.9659,0,0.000885,0,0
0:1:59.358,444.217,25.1383,0,0.000885,0,0
0:2:0.053,447.798,25.3382,0,0.000885,0,0
0:2:0.758,450.845,25.5106,0,0.000885,0,0
0:2:1.463,453.719,25.6761,0,0.000885,0,0
0:2:2.165,457.237,25.876,0,0.000885,0,0
0:2:2.853,459.822,26.0208,0,0.000885,0,0
0:2:3.556,462.637,26.1794,0,0.000885,0,0
0:2:4.260,466.094,26.3724,0,0.000885,0,0
0:2:4.948,469.087,26.5448,0,0.000885,0,0
0:2:5.652,471.783,26.6965,0,0.000885,0,0
0:2:6.354,475.715,26.9171,0,0.000885,0,0
0:2:7.046,478.882,27.0964,0,0.000885,0,0
0:2:7.742,481.929,27.2688,0,0.000885,0,0
0:2:8.451,484.514,27.4204,0,0.000885,0,0
0:2:9.163,487.681,27.5997,0,0.000885,0,0
0:2:9.858,490.434,27.7514,0,0.000885,0,0
0:2:10.550,493.721,27.9376,0,0.000885,0,0
0:2:11.257,496.826,28.1168,0,0.000885,0,0
0:2:11.959,499.936,28.2892,0,0.000885,0,0
0:2:12.646,503.454,28.4891,0,0.000885,0,0
0:2:13.340,506.684,28.6753,0,0.000885,0,0
0:2:14.042,509.143,28.8132,0,0.000885,0,0
0:2:14.753,512.489,28.9993,0,0.000885,0,0
0:2:15.455,515.246,29.1579,0,0.000885,0,0
0:2:16.163,518.938,29.3648,0,0.000885,0,0
0:2:16.864,521.287,29.4958,0,0.000885,0,0
0:2:17.558,524.57,29.6819,0,0.000885,0,0
0:2:18.245,527.853,29.8681,0,0.000885,0,0
0:2:18.951,531.549,30.0818,0,0.000885,0,0
0:2:19.641,533.836,30.2059,0,0.000885,0,0
0:2:20.350,537.416,30.4128,0,0.000885,0,0
0:2:21.059,539.996,30.5576,0,0.000885,0,0
0:2:21.759,542.928,30.723,0,0.000885,0,0
0:2:22.466,546.682,30.9368,0,0.000885,0,0
0:2:23.156,549.729,31.1091,0,0.000885,0,0
0:2:23.845,552.313,31.2539,0,0.000885,0,0
0:2:24.540,556.063,31.4677,0,0.000885,0,0
0:2:25.241,558.648,31.6125,0,0.000885,0,0
0:2:25.942,561.401,31.771,0,0.000885,0,0
0:2:26.645,565.391,31.9917,0,0.000885,0,0
0:2:27.341,567.971,32.1434,0,0.000885,0,0
0:2:28.055,570.96,32.3088,0,0.000885,0,0
0:2:28.767,573.954,32.4812,0,0.000885,0,0
0:2:29.467,577.006,32.6536,0,0.000885,0,0
0:2:30.163,580.818,32.8673,0,0.000885,0,0
0:2:30.866,582.984,32.9914,0,0.000885,0,0
0:2:31.568,586.387,33.1845,0,0.000885,0,0
0:2:32.261,589.612,33.3637,0,0.000885,0,0
0:2:32.952,592.548,33.5292,0,0.000885,0,0
0:2:33.649,595.599,33.7016,0,0.000885,0,0
0:2:34.353,599.064,33.9015,0,0.000885,0,0
0:2:35.049,602.116,34.0739,0,0.000885,0,0
0:2:35.757,605.287,34.2532,0,0.000885,0,0
0:2:36.465,607.632,34.3842,0,0.000885,0,0
0:2:37.162,610.158,34.5289,0,0.000885,0,0
0:2:37.868,614.326,34.7634,0,0.000885,0,0
0:2:38.561,617.671,34.9564,0,0.000885,0,0
0:2:39.257,620.135,35.0943,0,0.000885,0,0
0:2:39.950,623.716,35.2943,0,0.000885,0,0
0:2:40.655,626.416,35.4459,0,0.000885,0,0
0:2:41.364,628.943,35.5907,0,0.000885,0,0
0:2:42.062,632.991,35.8183,0,0.000885,0,0
0:2:42.758,635.046,35.9355,0,0.000885,0,0
0:2:43.454,637.862,36.0941,0,0.000885,0,0
0:2:44.145,640.21,36.2319,0,0.000885,0,0
0:2:44.843,643.088,36.3905,0,0.000885,0,0
0:2:45.540,644.378,36.4664,0,0.000885,0,0
0:2:46.247,646.024,36.556,0,0.000885,0,0
0:2:46.952,645.553,36.5284,0,0.000885,0,0
0:2:47.652,636.985,36.0458,0,0.000885,0,0
0:2:48.356,600.239,33.9636,0,0.000885,0,0
0:2:49.049,495.479,28.041,0,0.000885,0,0
0:2:49.080,495.479,28.041,0,0.000885,0,0