File: DataFile2021-07-28_102449.csv
Test ID:,Date Tested:,Time:,Test Type:,Diameter Avg. (mm):,Cyl. Corr. Factor:,Height (mm):,Age (days):,Weight (kN):,Break Type:,Ramp Rate (MPa/s):,Load at Break (kN):,Stress at Break (MPa):
12,7/28/2021,10:24,Cylinder,100,1,200,0,13.69,3,0.35,1160.76,147.79
Sample Time,Load (kN),Stress (MPa),Long. Strain,Trans. Strain,Chan1 Deflection (mm),Chan2 Deflection (mm)
0:0:12.795,5.80493,0.737739,0,0.000885,0,0
0:0:14.585,10.1464,1.28932,0,0.000885,0,0
0:0:16.380,14.8393,1.88916,0,0.000885,0,0
0:0:18.180,19.3542,2.46143,0,0.000885,0,0
0:0:19.994,23.9893,3.05438,0,0.000885,0,0
0:0:21.789,29.7942,3.79212,0,0.000885,0,0
0:0:23.583,35.3055,4.49538,0,0.000885,0,0
0:0:25.397,41.0571,5.22623,0,0.000885,0,0
0:0:27.189,45.5142,5.7916,0,0.000885,0,0
0:0:28.997,49.8512,6.35007,0,0.000885,0,0
0:0:30.795,54.6642,6.95681,0,0.000885,0,0
0:0:32.589,59.8241,7.61871,0,0.000885,0,0
0:0:34.401,65.162,8.29439,0,0.000885,0,0
0:0:36.196,69.9127,8.90113,0,0.000885,0,0
0:0:37.984,74.7791,9.52166,0,0.000885,0,0
0:0:39.801,79.8812,10.1698,0,0.000885,0,0
0:0:41.591,84.8676,10.8041,0,0.000885,0,0
0:0:43.393,88.7376,11.3005,0,0.000885,0,0
0:0:45.197,94.7783,12.0658,0,0.000885,0,0
0:0:46.991,100.232,12.7622,0,0.000885,0,0
0:0:48.793,103.577,13.1897,0,0.000885,0,0
0:0:50.596,109.266,13.9136,0,0.000885,0,0
0:0:52.384,114.777,14.6169,0,0.000885,0,0
0:0:54.193,118.768,15.1202,0,0.000885,0,0
0:0:55.986,123.985,15.789,0,0.000885,0,0
0:0:57.787,129.03,16.4302,0,0.000885,0,0
0:0:59.596,133.78,17.0369,0,0.000885,0,0
0:1:1.390,138.651,17.6506,0,0.000885,0,0
0:1:3.183,143.344,18.2504,0,0.000885,0,0
0:1:4.995,148.562,18.9123,0,0.000885,0,0
0:1:6.783,153.779,19.5811,0,0.000885,0,0
0:1:8.594,158.592,20.1947,0,0.000885,0,0
0:1:10.398,164.104,20.8911,0,0.000885,0,0
0:1:12.189,168.445,21.4496,0,0.000885,0,0
0:1:13.994,173.427,22.0839,0,0.000885,0,0
0:1:15.797,178.592,22.7389,0,0.000885,0,0
0:1:17.586,183.809,23.4008,0,0.000885,0,0
0:1:19.403,188.209,23.9662,0,0.000885,0,0
0:1:21.192,193.489,24.635,0,0.000885,0,0
0:1:22.980,198.119,25.2279,0,0.000885,0,0
0:1:24.783,203.164,25.8691,0,0.000885,0,0
0:1:26.581,208.092,26.4966,0,0.000885,0,0
0:1:28.383,213.31,27.1584,0,0.000885,0,0
0:1:30.190,217.594,27.7031,0,0.000885,0,0
0:1:31.988,222.696,28.3512,0,0.000885,0,0
0:1:33.795,227.918,29.02,0,0.000885,0,0
0:1:35.587,233.078,29.675,0,0.000885,0,0
0:1:37.386,237.771,30.2749,0,0.000885,0,0
0:1:39.196,242.931,30.9299,0,0.000885,0,0
0:1:40.990,248.091,31.5849,0,0.000885,0,0
0:1:42.788,252.606,32.164,0,0.000885,0,0
0:1:44.588,258.179,32.8742,0,0.000885,0,0
0:1:46.387,262.227,33.3844,0,0.000885,0,0
0:1:48.186,267.796,34.0946,0,0.000885,0,0
0:1:49.987,272.783,34.7289,0,0.000885,0,0
0:1:51.773,277.298,35.3081,0,0.000885,0,0
0:1:53.587,282.693,35.9906,0,0.000885,0,0
0:1:55.385,287.155,36.5629,0,0.000885,0,0
0:1:57.192,291.728,37.1421,0,0.000885,0,0
0:1:58.991,297.123,37.8315,0,0.000885,0,0
0:2:0.780,302.168,38.4727,0,0.000885,0,0
0:2:2.584,307.506,39.1553,0,0.000885,0,0
0:2:4.390,312.43,39.7827,0,0.000885,0,0
0:2:6.178,316.829,40.3412,0,0.000885,0,0
0:2:7.987,321.993,40.9962,0,0.000885,0,0
0:2:9.791,326.802,41.6099,0,0.000885,0,0
0:2:11.590,332.313,42.3131,0,0.000885,0,0
0:2:13.390,336.828,42.8854,0,0.000885,0,0
0:2:15.188,341.521,43.4852,0,0.000885,0,0
0:2:16.985,346.681,44.1402,0,0.000885,0,0
0:2:18.791,351.494,44.7539,0,0.000885,0,0
0:2:20.592,356.182,45.3537,0,0.000885,0,0
0:2:22.390,361.111,45.9811,0,0.000885,0,0
0:2:24.197,365.804,46.5741,0,0.000885,0,0
0:2:25.988,371.729,47.3325,0,0.000885,0,0
0:2:27.783,376.186,47.8979,0,0.000885,0,0
0:2:29.588,381.582,48.5874,0,0.000885,0,0
0:2:31.383,385.981,49.1458,0,0.000885,0,0
0:2:33.193,391.728,49.8767,0,0.000885,0,0
0:2:34.996,396.007,50.4214,0,0.000885,0,0
0:2:36.782,401.109,51.0695,0,0.000885,0,0
0:2:38.595,406.154,51.7107,0,0.000885,0,0
0:2:40.393,410.962,52.3243,0,0.000885,0,0
0:2:42.181,415.833,52.9448,0,0.000885,0,0
0:2:43.995,421.465,53.6619,0,0.000885,0,0
0:2:45.778,426.037,54.248,0,0.000885,0,0
0:2:47.586,430.904,54.8616,0,0.000885,0,0
0:2:49.398,435.774,55.4821,0,0.000885,0,0
0:2:51.189,440.877,56.1371,0,0.000885,0,0
0:2:52.984,445.392,56.7094,0,0.000885,0,0
0:2:54.799,450.494,57.3575,0,0.000885,0,0
0:2:56.596,455.364,57.978,0,0.000885,0,0
0:2:58.390,460.467,58.6261,0,0.000885,0,0
0:3:0.182,465.275,59.2398,0,0.000885,0,0
0:3:1.981,470.786,59.943,0,0.000885,0,0
0:3:3.804,475.07,60.4877,0,0.000885,0,0
0:3:5.592,479.879,61.1013,0,0.000885,0,0
0:3:7.392,485.804,61.8529,0,0.000885,0,0
0:3:9.205,490.728,62.4803,0,0.000885,0,0
0:3:10.998,494.776,62.9974,0,0.000885,0,0
0:3:12.795,500.581,63.7351,0,0.000885,0,0
0:3:14.598,505.451,64.3557,0,0.000885,0,0
0:3:16.394,509.379,64.859,0,0.000885,0,0
0:3:18.199,515.068,65.5829,0,0.000885,0,0
0:3:19.998,520.464,66.2655,0,0.000885,0,0
0:3:21.795,524.512,66.7826,0,0.000885,0,0
0:3:23.602,530.023,67.4859,0,0.000885,0,0
0:3:25.396,534.307,68.0306,0,0.000885,0,0
0:3:27.199,539.409,68.6787,0,0.000885,0,0
0:3:29.001,544.044,69.2716,0,0.000885,0,0
0:3:30.789,549.907,70.0163,0,0.000885,0,0
0:3:32.589,554.191,70.5609,0,0.000885,0,0
0:3:34.391,558.999,71.1746,0,0.000885,0,0
0:3:36.183,564.453,71.8709,0,0.000885,0,0
0:3:38.000,569.025,72.4501,0,0.000885,0,0
0:3:39.805,573.896,73.0706,0,0.000885,0,0
0:3:41.590,579.879,73.8291,0,0.000885,0,0
0:3:43.390,584.043,74.36,0,0.000885,0,0
0:3:45.191,589.265,75.0287,0,0.000885,0,0
0:3:46.995,593.664,75.5872,0,0.000885,0,0
0:3:48.808,598.949,76.2629,0,0.000885,0,0
0:3:50.602,603.41,76.8283,0,0.000885,0,0
0:3:52.385,608.223,77.4419,0,0.000885,0,0
0:3:54.198,614.268,78.2141,0,0.000885,0,0
0:3:55.998,619.375,78.8622,0,0.000885,0,0
0:3:57.791,623.427,79.3793,0,0.000885,0,0
0:3:59.606,628.943,80.0826,0,0.000885,0,0
0:4:1.390,633.756,80.6893,0,0.000885,0,0
0:4:3.190,638.511,81.2961,0,0.000885,0,0
0:4:5.000,643.502,81.9304,0,0.000885,0,0
0:4:6.788,648.782,82.6061,0,0.000885,0,0
0:4:8.604,653.244,83.1715,0,0.000885,0,0
0:4:10.407,658.292,83.8196,0,0.000885,0,0
0:4:12.194,663.457,84.4746,0,0.000885,0,0
0:4:14.006,667.918,85.0399,0,0.000885,0,0
0:4:15.803,672.851,85.6674,0,0.000885,0,0
0:4:17.595,678.131,86.343,0,0.000885,0,0
0:4:19.402,683.416,87.0118,0,0.000885,0,0
0:4:21.191,687.584,87.5427,0,0.000885,0,0
0:4:22.992,693.042,88.2391,0,0.000885,0,0
0:4:24.802,697.681,88.8321,0,0.000885,0,0
0:4:26.590,702.846,89.4871,0,0.000885,0,0
0:4:28.404,707.774,90.1145,0,0.000885,0,0
0:4:30.210,712.885,90.7695,0,0.000885,0,0
0:4:31.993,717.578,91.3624,0,0.000885,0,0
0:4:33.803,722.16,91.9485,0,0.000885,0,0
0:4:35.605,727.854,92.6724,0,0.000885,0,0
0:4:37.400,732.667,93.2861,0,0.000885,0,0
0:4:39.209,737.422,93.8928,0,0.000885,0,0
0:4:40.998,742.466,94.534,0,0.000885,0,0
0:4:42.798,747.635,95.189,0,0.000885,0,0
0:4:44.609,752.506,95.8095,0,0.000885,0,0
0:4:46.401,757.434,96.437,0,0.000885,0,0
0:4:48.194,762.189,97.0437,0,0.000885,0,0
0:4:50.009,767.18,97.678,0,0.000885,0,0
0:4:51.802,772.345,98.3399,0,0.000885,0,0
0:4:53.610,776.513,98.8708,0,0.000885,0,0
0:4:55.408,782.384,99.6155,0,0.000885,0,0
0:4:57.206,786.846,100.181,0,0.000885,0,0
0:4:59.010,792.01,100.843,0,0.000885,0,0
0:5:0.804,796.939,101.47,0,0.000885,0,0
0:5:2.596,801.285,102.022,0,0.000885,0,0
0:5:4.413,806.921,102.739,0,0.000885,0,0
0:5:6.204,812.085,103.401,0,0.000885,0,0
0:5:7.998,816.311,103.938,0,0.000885,0,0
0:5:9.809,821.653,104.614,0,0.000885,0,0
0:5:11.608,826.23,105.2,0,0.000885,0,0
0:5:13.413,831.043,105.814,0,0.000885,0,0
0:5:15.217,836.27,106.476,0,0.000885,0,0
0:5:17.001,841.257,107.11,0,0.000885,0,0
0:5:18.813,846.483,107.779,0,0.000885,0,0
0:5:20.610,851.763,108.448,0,0.000885,0,0
0:5:22.398,856.754,109.089,0,0.000885,0,0
0:5:24.200,861.1,109.64,0,0.000885,0,0
0:5:26.005,865.913,110.254,0,0.000885,0,0
0:5:27.797,871.193,110.923,0,0.000885,0,0
0:5:29.609,876.184,111.557,0,0.000885,0,0
0:5:31.392,880.939,112.164,0,0.000885,0,0
0:5:33.185,885.988,112.805,0,0.000885,0,0
0:5:34.991,891.33,113.488,0,0.000885,0,0
0:5:36.780,895.498,114.019,0,0.000885,0,0
0:5:38.571,900.72,114.68,0,0.000885,0,0
0:5:40.377,905.591,115.301,0,0.000885,0,0
0:5:42.160,910.466,115.922,0,0.000885,0,0
0:5:43.970,915.395,116.549,0,0.000885,0,0
0:5:45.760,920.035,117.142,0,0.000885,0,0
0:5:47.552,925.608,117.852,0,0.000885,0,0
0:5:49.359,930.012,118.411,0,0.000885,0,0
0:5:51.149,935.59,119.121,0,0.000885,0,0
0:5:52.932,940.167,119.707,0,0.000885,0,0
0:5:54.744,945.038,120.327,0,0.000885,0,0
0:5:56.527,950.145,120.975,0,0.000885,0,0
0:5:58.316,955.078,121.603,0,0.000885,0,0
0:6:0.125,959.833,122.21,0,0.000885,0,0
0:6:1.916,964.877,122.851,0,0.000885,0,0
0:6:3.717,969.632,123.458,0,0.000885,0,0
0:6:5.515,975.032,124.147,0,0.000885,0,0
0:6:7.306,979.614,124.726,0,0.000885,0,0
0:6:9.123,984.721,125.381,0,0.000885,0,0
0:6:10.912,989.298,125.96,0,0.000885,0,0
0:6:12.710,994.289,126.595,0,0.000885,0,0
0:6:14.515,999.689,127.284,0,0.000885,0,0
0:6:16.300,1004.62,127.912,0,0.000885,0,0
0:6:18.099,1009.49,128.532,0,0.000885,0,0
0:6:19.902,1014.48,129.166,0,0.000885,0,0
0:6:21.704,1018.59,129.69,0,0.000885,0,0
0:6:23.502,1024.52,130.449,0,0.000885,0,0
0:6:25.298,1029.27,131.049,0,0.000885,0,0
0:6:27.107,1034.26,131.683,0,0.000885,0,0
0:6:28.908,1038.54,132.235,0,0.000885,0,0
0:6:30.714,1044.18,132.952,0,0.000885,0,0
0:6:32.514,1048.99,133.565,0,0.000885,0,0
0:6:34.330,1053.51,134.138,0,0.000885,0,0
0:6:36.122,1059.27,134.868,0,0.000885,0,0
0:6:37.904,1064.37,135.523,0,0.000885,0,0
0:6:39.717,1068.42,136.034,0,0.000885,0,0
0:6:41.501,1074.12,136.758,0,0.000885,0,0
0:6:43.308,1078.64,137.337,0,0.000885,0,0
0:6:45.117,1083.45,137.95,0,0.000885,0,0
0:6:46.906,1088.5,138.592,0,0.000885,0,0
0:6:48.709,1093.02,139.171,0,0.000885,0,0
0:6:50.516,1098.48,139.86,0,0.000885,0,0
0:6:52.300,1103.41,140.488,0,0.000885,0,0
0:6:54.108,1108.75,141.17,0,0.000885,0,0
0:6:55.909,1113.45,141.77,0,0.000885,0,0
0:6:57.704,1118.38,142.397,0,0.000885,0,0
0:6:59.518,1123.6,143.059,0,0.000885,0,0
0:7:1.309,1127.59,143.57,0,0.000885,0,0
0:7:3.119,1133.4,144.307,0,0.000885,0,0
0:7:4.929,1138.04,144.9,0,0.000885,0,0
0:7:6.718,1142.97,145.528,0,0.000885,0,0
0:7:8.508,1147.55,146.114,0,0.000885,0,0
0:7:10.318,1153.3,146.845,0,0.000885,0,0
0:7:12.108,1158.35,147.486,0,0.000885,0,0
0:7:13.917,1084.1,138.033,0,0.000885,0,0
0:7:15.711,997.514,127.008,0,0.000885,0,0
0:7:17.518,990.824,126.153,0,0.000885,0,0
0:7:19.325,988.181,125.822,0,0.000885,0,0
0:7:21.105,987.536,125.74,0,0.000885,0,0
0:7:22.888,843.432,107.386,0,0.000885,0,0
0:7:23.828,825.408,105.097,0,0.000885,0,0