File: DataFile2021-07-25_064639.csv
Test ID:,Date Tested:,Time:,Test Type:,Diameter Avg. (mm):,Cyl. Corr. Factor:,Height (mm):,Age (days):,Weight (kN):,Break Type:,Ramp Rate (MPa/s):,Load at Break (kN):,Stress at Break (MPa):
12,7/25/2021,06:46,Cylinder,100,1,200,0,3.5,2,0.33,263.63,33.56
Sample Time,Load (kN),Stress (MPa),Long. Strain,Trans. Strain,Chan1 Deflection (mm),Chan2 Deflection (mm)
0:0:12.152,5.28004,0.668791,0,0.000885,0,0
0:0:12.648,11.7878,1.50306,0,0.000885,0,0
0:0:13.146,11.6721,1.48927,0,0.000885,0,0
0:0:13.640,11.3786,1.4479,0,0.000885,0,0
0:0:14.137,11.7878,1.50306,0,0.000885,0,0
0:0:14.633,10.907,1.38585,0,0.000885,0,0
0:0:15.130,11.6721,1.48927,0,0.000885,0,0
0:0:15.628,12.9043,1.64095,0,0.000885,0,0
0:0:16.125,15.3686,1.95811,0,0.000885,0,0
0:0:16.622,16.9522,2.15806,0,0.000885,0,0
0:0:17.120,18.7092,2.38559,0,0.000885,0,0
0:0:17.620,19.7056,2.50969,0,0.000885,0,0
0:0:18.128,21.347,2.71653,0,0.000885,0,0
0:0:18.632,22.4635,2.86132,0,0.000885,0,0
0:0:19.137,24.3407,3.09575,0,0.000885,0,0
0:0:19.634,25.8664,3.29569,0,0.000885,0,0
0:0:20.133,27.45,3.49564,0,0.000885,0,0
0:0:20.630,29.1492,3.70938,0,0.000885,0,0
0:0:21.129,30.6749,3.90243,0,0.000885,0,0
0:0:21.628,32.3742,4.12306,0,0.000885,0,0
0:0:22.124,33.6641,4.28854,0,0.000885,0,0
0:0:22.623,34.2513,4.36438,0,0.000885,0,0
0:0:23.131,36.0128,4.58501,0,0.000885,0,0
0:0:23.636,37.5341,4.77807,0,0.000885,0,0
0:0:24.140,38.357,4.88149,0,0.000885,0,0
0:0:24.639,39.0598,4.97112,0,0.000885,0,0
0:0:25.137,40.4121,5.14349,0,0.000885,0,0
0:0:25.635,42.1691,5.37102,0,0.000885,0,0
0:0:26.132,43.7527,5.57096,0,0.000885,0,0
0:0:26.629,45.2206,5.75712,0,0.000885,0,0
0:0:27.128,46.6841,5.94328,0,0.000885,0,0
0:0:27.623,47.507,6.0467,0,0.000885,0,0
0:0:28.130,49.0327,6.23976,0,0.000885,0,0
0:0:28.635,50.7898,6.46728,0,0.000885,0,0
0:0:29.140,52.6669,6.7086,0,0.000885,0,0
0:0:29.638,53.6055,6.82581,0,0.000885,0,0
0:0:30.137,55.0156,7.00507,0,0.000885,0,0
0:0:30.634,56.5992,7.20502,0,0.000885,0,0
0:0:31.133,57.7112,7.34981,0,0.000885,0,0
0:0:31.630,59.1213,7.52907,0,0.000885,0,0
0:0:32.129,60.4691,7.70144,0,0.000885,0,0
0:0:32.624,61.1719,7.79108,0,0.000885,0,0
0:0:33.130,62.8712,8.00481,0,0.000885,0,0
0:0:33.637,64.4547,8.20476,0,0.000885,0,0
0:0:34.140,66.0383,8.4116,0,0.000885,0,0
0:0:34.638,67.5062,8.59776,0,0.000885,0,0
0:0:35.135,68.854,8.77013,0,0.000885,0,0
0:0:35.633,70.144,8.92871,0,0.000885,0,0
0:0:36.129,71.3762,9.08729,0,0.000885,0,0
0:0:36.628,72.6661,9.25276,0,0.000885,0,0
0:0:37.125,73.8405,9.40445,0,0.000885,0,0
0:0:37.631,75.1305,9.56303,0,0.000885,0,0
0:0:38.136,76.5405,9.74229,0,0.000885,0,0
0:0:38.639,78.1819,9.95603,0,0.000885,0,0
0:0:39.137,79.4719,10.1215,0,0.000885,0,0
0:0:39.635,80.4105,10.2387,0,0.000885,0,0
0:0:40.132,82.4611,10.5007,0,0.000885,0,0
0:0:40.631,83.9869,10.6938,0,0.000885,0,0
0:0:41.127,84.6897,10.7834,0,0.000885,0,0
0:0:41.626,86.509,11.0178,0,0.000885,0,0
0:0:42.124,87.9769,11.204,0,0.000885,0,0
0:0:42.625,88.9155,11.3212,0,0.000885,0,0
0:0:43.133,90.3211,11.5005,0,0.000885,0,0
0:0:43.637,92.5497,11.7831,0,0.000885,0,0
0:0:44.140,93.8975,11.9555,0,0.000885,0,0
0:0:44.636,94.9562,12.0934,0,0.000885,0,0
0:0:45.134,96.0682,12.2313,0,0.000885,0,0
0:0:45.632,97.2426,12.383,0,0.000885,0,0
0:0:46.130,98.1811,12.5002,0,0.000885,0,0
0:0:46.628,100.232,12.7622,0,0.000885,0,0
0:0:47.128,101.584,12.9346,0,0.000885,0,0
0:0:47.625,102.46,13.0449,0,0.000885,0,0
0:0:48.133,104.164,13.2655,0,0.000885,0,0
0:0:48.637,105.748,13.4655,0,0.000885,0,0
0:0:49.143,107.798,13.7275,0,0.000885,0,0
0:0:49.640,108.443,13.8102,0,0.000885,0,0
0:0:50.137,109.853,13.9895,0,0.000885,0,0
0:0:50.636,110.792,14.1067,0,0.000885,0,0
0:0:51.132,112.607,14.3411,0,0.000885,0,0
0:0:51.629,113.314,14.4307,0,0.000885,0,0
0:0:52.125,115.191,14.6651,0,0.000885,0,0
0:0:52.622,116.539,14.8375,0,0.000885,0,0
0:0:53.129,117.829,15.003,0,0.000885,0,0
0:0:53.634,119.942,15.2719,0,0.000885,0,0
0:0:54.137,120.76,15.3753,0,0.000885,0,0
0:0:54.636,121.992,15.5339,0,0.000885,0,0
0:0:55.133,123.518,15.7269,0,0.000885,0,0
0:0:55.630,124.75,15.8855,0,0.000885,0,0
0:0:56.127,125.925,16.0303,0,0.000885,0,0
0:0:56.625,128.091,16.3061,0,0.000885,0,0
0:0:57.121,128.798,16.3957,0,0.000885,0,0
0:0:57.627,129.852,16.5336,0,0.000885,0,0
0:0:58.133,131.73,16.7749,0,0.000885,0,0
0:0:58.638,133.429,16.9887,0,0.000885,0,0
0:0:59.137,134.31,17.099,0,0.000885,0,0
0:0:59.636,135.951,17.3127,0,0.000885,0,0
0:1:0.133,137.068,17.4506,0,0.000885,0,0
0:1:0.631,138.357,17.6161,0,0.000885,0,0
0:1:1.130,140.292,17.8643,0,0.000885,0,0
0:1:1.627,141.231,17.9815,0,0.000885,0,0
0:1:2.125,142.637,18.1608,0,0.000885,0,0
0:1:2.624,144.22,18.3607,0,0.000885,0,0
0:1:3.132,145.924,18.5814,0,0.000885,0,0
0:1:3.636,146.978,18.7124,0,0.000885,0,0
0:1:4.141,148.152,18.8641,0,0.000885,0,0
0:1:4.639,149.442,19.0295,0,0.000885,0,0
0:1:5.138,151.026,19.2295,0,0.000885,0,0
0:1:5.633,151.787,19.326,0,0.000885,0,0
0:1:6.131,153.957,19.6018,0,0.000885,0,0
0:1:6.627,155.074,19.7466,0,0.000885,0,0
0:1:7.126,156.302,19.8983,0,0.000885,0,0
0:1:7.623,157.712,20.0775,0,0.000885,0,0
0:1:8.128,159.002,20.243,0,0.000885,0,0
0:1:8.634,160.701,20.4636,0,0.000885,0,0
0:1:9.138,161.933,20.6153,0,0.000885,0,0
0:1:9.636,163.05,20.7601,0,0.000885,0,0
0:1:10.133,164.691,20.967,0,0.000885,0,0
0:1:10.631,165.923,21.1255,0,0.000885,0,0
0:1:11.126,167.858,21.3737,0,0.000885,0,0
0:1:11.625,169.09,21.5323,0,0.000885,0,0
0:1:12.121,170.265,21.6771,0,0.000885,0,0
0:1:12.627,171.377,21.8219,0,0.000885,0,0
0:1:13.131,172.782,22.0012,0,0.000885,0,0
0:1:13.635,174.486,22.2149,0,0.000885,0,0
0:1:14.134,175.776,22.3804,0,0.000885,0,0
0:1:14.630,176.888,22.5252,0,0.000885,0,0
0:1:15.128,178.12,22.6769,0,0.000885,0,0
0:1:15.626,179.294,22.8285,0,0.000885,0,0
0:1:16.124,180.642,23.0009,0,0.000885,0,0
0:1:16.622,182.697,23.2629,0,0.000885,0,0
0:1:17.120,183.342,23.3456,0,0.000885,0,0
0:1:17.622,185.277,23.587,0,0.000885,0,0
0:1:18.130,186.861,23.7938,0,0.000885,0,0
0:1:18.632,188.267,23.9731,0,0.000885,0,0
0:1:19.134,189.619,24.1454,0,0.000885,0,0
0:1:19.632,191.318,24.3592,0,0.000885,0,0
0:1:20.130,192.257,24.4764,0,0.000885,0,0
0:1:20.626,193.137,24.5936,0,0.000885,0,0
0:1:21.121,194.721,24.7935,0,0.000885,0,0
0:1:21.615,196.536,25.0211,0,0.000885,0,0
0:1:22.109,197.652,25.1659,0,0.000885,0,0
0:1:22.612,199,25.3382,0,0.000885,0,0
0:1:23.115,200.232,25.4968,0,0.000885,0,0
0:1:23.617,201.407,25.6416,0,0.000885,0,0
0:1:24.117,203.164,25.8691,0,0.000885,0,0
0:1:24.610,204.689,26.0622,0,0.000885,0,0
0:1:25.114,205.806,26.207,0,0.000885,0,0
0:1:25.608,207.447,26.4138,0,0.000885,0,0
0:1:26.110,208.737,26.5793,0,0.000885,0,0
0:1:26.614,210.085,26.7517,0,0.000885,0,0
0:1:27.107,210.908,26.8551,0,0.000885,0,0
0:1:27.611,212.256,27.0274,0,0.000885,0,0
0:1:28.114,213.782,27.2205,0,0.000885,0,0
0:1:28.613,214.956,27.3722,0,0.000885,0,0
0:1:29.108,216.361,27.5515,0,0.000885,0,0
0:1:29.612,217.945,27.7514,0,0.000885,0,0
0:1:30.105,218.999,27.8824,0,0.000885,0,0
0:1:30.609,220.819,28.1168,0,0.000885,0,0
0:1:31.113,222.402,28.3168,0,0.000885,0,0
0:1:31.606,223.519,28.4616,0,0.000885,0,0
0:1:32.109,225.16,28.6684,0,0.000885,0,0
0:1:32.611,226.214,28.7994,0,0.000885,0,0
0:1:33.114,227.918,29.02,0,0.000885,0,0
0:1:33.614,229.266,29.1924,0,0.000885,0,0
0:1:34.110,230.965,29.4061,0,0.000885,0,0
0:1:34.615,232.082,29.5509,0,0.000885,0,0
0:1:35.108,233.02,29.6681,0,0.000885,0,0
0:1:35.613,234.484,29.8543,0,0.000885,0,0
0:1:36.108,236.125,30.068,0,0.000885,0,0
0:1:36.610,237.241,30.2059,0,0.000885,0,0
0:1:37.103,238.767,30.399,0,0.000885,0,0
0:1:37.610,240.173,30.5782,0,0.000885,0,0
0:1:38.114,241.232,30.7161,0,0.000885,0,0
0:1:38.615,242.579,30.8885,0,0.000885,0,0
0:1:39.116,244.043,31.0747,0,0.000885,0,0
0:1:39.609,245.395,31.247,0,0.000885,0,0
0:1:40.101,246.507,31.3849,0,0.000885,0,0
0:1:40.606,248.033,31.578,0,0.000885,0,0
0:1:41.112,249.732,31.7986,0,0.000885,0,0
0:1:41.615,250.964,31.9572,0,0.000885,0,0
0:1:42.109,252.432,32.1434,0,0.000885,0,0
0:1:42.611,253.371,32.2606,0,0.000885,0,0
0:1:43.115,254.719,32.4329,0,0.000885,0,0
0:1:43.616,256.48,32.6536,0,0.000885,0,0
0:1:44.116,257.476,32.7846,0,0.000885,0,0
0:1:44.611,258.766,32.95,0,0.000885,0,0
0:1:45.101,260.114,33.1155,0,0.000885,0,0
0:1:45.608,261.111,33.2465,0,0.000885,0,0
0:1:46.111,262.285,33.3982,0,0.000885,0,0
0:1:46.614,263.575,33.5568,0,0.000885,0,0
0:1:47.104,264.104,33.6257,0,0.000885,0,0
0:1:47.607,264.104,33.6257,0,0.000885,0,0
0:1:48.109,263.459,33.543,0,0.000885,0,0
0:1:48.607,259.941,33.0948,0,0.000885,0,0
0:1:49.110,253.077,32.2261,0,0.000885,0,0
0:1:49.613,249.852,31.8124,0,0.000885,0,0
0:1:50.104,247.975,31.5711,0,0.000885,0,0
0:1:50.608,246.979,31.447,0,0.000885,0,0
0:1:51.110,246.334,31.3643,0,0.000885,0,0
0:1:51.614,245.569,31.2677,0,0.000885,0,0
0:1:52.105,243.282,30.9781,0,0.000885,0,0
0:1:52.614,236.77,30.1439,0,0.000885,0,0
0:1:53.116,222.287,28.303,0,0.000885,0,0
0:1:53.616,198.182,25.2348,0,0.000885,0,0
0:1:53.937,188.502,24.0007,0,0.000885,0,0