File: DataFile2021-07-25_065159.csv
Test ID:,Date Tested:,Time:,Test Type:,Diameter Avg. (mm):,Cyl. Corr. Factor:,Height (mm):,Age (days):,Weight (kN):,Break Type:,Ramp Rate (MPa/s):,Load at Break (kN):,Stress at Break (MPa):
12,7/25/2021,06:51,Cylinder,100,1,200,0,3.5,3,0.33,275.6,35.09
Sample Time,Load (kN),Stress (MPa),Long. Strain,Trans. Strain,Chan1 Deflection (mm),Chan2 Deflection (mm)
0:0:11.533,5.57362,0.71016,0,0.000885,0,0
0:0:12.029,9.96846,1.26864,0,0.000885,0,0
0:0:12.526,9.96846,1.26864,0,0.000885,0,0
0:0:13.021,9.73716,1.24106,0,0.000885,0,0
0:0:13.519,10.0886,1.28242,0,0.000885,0,0
0:0:14.013,10.3243,1.3169,0,0.000885,0,0
0:0:14.512,11.9657,1.52374,0,0.000885,0,0
0:0:15.009,14.4879,1.84779,0,0.000885,0,0
0:0:15.505,15.3063,1.95122,0,0.000885,0,0
0:0:16.002,17.01,2.16495,0,0.000885,0,0
0:0:16.500,18.1799,2.31664,0,0.000885,0,0
0:0:16.999,19.3542,2.46143,0,0.000885,0,0
0:0:17.506,21.5828,2.75101,0,0.000885,0,0
0:0:18.011,22.9306,2.91648,0,0.000885,0,0
0:0:18.516,24.2206,3.08196,0,0.000885,0,0
0:0:19.016,25.2214,3.21296,0,0.000885,0,0
0:0:19.512,27.0986,3.44738,0,0.000885,0,0
0:0:20.011,29.0335,3.69559,0,0.000885,0,0
0:0:20.508,30.2034,3.84727,0,0.000885,0,0
0:0:21.006,32.0227,4.0748,0,0.000885,0,0
0:0:21.502,33.077,4.2127,0,0.000885,0,0
0:0:22.001,34.1357,4.3437,0,0.000885,0,0
0:0:22.508,35.1321,4.4747,0,0.000885,0,0
0:0:23.013,36.5377,4.65396,0,0.000885,0,0
0:0:23.517,38.0634,4.84701,0,0.000885,0,0
0:0:24.014,39.4112,5.01938,0,0.000885,0,0
0:0:24.512,40.8792,5.20554,0,0.000885,0,0
0:0:25.009,42.5784,5.41928,0,0.000885,0,0
0:0:25.509,43.7527,5.57096,0,0.000885,0,0
0:0:26.005,44.9849,5.72954,0,0.000885,0,0
0:0:26.503,46.5106,5.9226,0,0.000885,0,0
0:0:27.009,47.507,6.0467,0,0.000885,0,0
0:0:27.515,48.9749,6.23286,0,0.000885,0,0
0:0:28.021,50.2026,6.39144,0,0.000885,0,0
0:0:28.519,52.3155,6.66034,0,0.000885,0,0
0:0:29.016,53.3698,6.79823,0,0.000885,0,0
0:0:29.516,54.7798,6.97749,0,0.000885,0,0
0:0:30.013,56.1277,7.14986,0,0.000885,0,0
0:0:30.511,57.7112,7.34981,0,0.000885,0,0
0:0:31.009,58.592,7.46013,0,0.000885,0,0
0:0:31.507,60.527,7.70834,0,0.000885,0,0
0:0:32.009,61.7013,7.85313,0,0.000885,0,0
0:0:32.517,63.227,8.05308,0,0.000885,0,0
0:0:33.022,63.9298,8.14271,0,0.000885,0,0
0:0:33.523,65.3933,8.32887,0,0.000885,0,0
0:0:34.021,66.5676,8.47366,0,0.000885,0,0
0:0:34.519,68.2713,8.69429,0,0.000885,0,0
0:0:35.017,69.9705,8.90803,0,0.000885,0,0
0:0:35.514,71.0826,9.05282,0,0.000885,0,0
0:0:36.011,72.3726,9.21829,0,0.000885,0,0
0:0:36.509,74.4276,9.4734,0,0.000885,0,0
0:0:37.005,74.7791,9.52166,0,0.000885,0,0
0:0:37.512,76.4204,9.7285,0,0.000885,0,0
0:0:38.018,78.0618,9.94224,0,0.000885,0,0
0:0:38.523,79.2362,10.087,0,0.000885,0,0
0:0:39.022,80.7041,10.2732,0,0.000885,0,0
0:0:39.518,81.874,10.4249,0,0.000885,0,0
0:0:40.015,83.5776,10.6386,0,0.000885,0,0
0:0:40.513,84.6319,10.7765,0,0.000885,0,0
0:0:41.010,86.0998,10.9627,0,0.000885,0,0
0:0:41.509,87.9769,11.204,0,0.000885,0,0
0:0:42.016,89.2669,11.3626,0,0.000885,0,0
0:0:42.523,90.6147,11.5349,0,0.000885,0,0
0:0:43.027,92.1983,11.7418,0,0.000885,0,0
0:0:43.525,93.0212,11.8452,0,0.000885,0,0
0:0:44.022,94.3112,12.0107,0,0.000885,0,0
0:0:44.521,95.7168,12.1899,0,0.000885,0,0
0:0:45.018,97.1269,12.3692,0,0.000885,0,0
0:0:45.518,98.4747,12.5416,0,0.000885,0,0
0:0:46.015,99.8804,12.7139,0,0.000885,0,0
0:0:46.513,101.642,12.9415,0,0.000885,0,0
0:0:47.017,102.696,13.0725,0,0.000885,0,0
0:0:47.525,103.87,13.2241,0,0.000885,0,0
0:0:48.029,105.57,13.4448,0,0.000885,0,0
0:0:48.530,107.389,13.6723,0,0.000885,0,0
0:0:49.028,108.034,13.755,0,0.000885,0,0
0:0:49.525,109.266,13.9136,0,0.000885,0,0
0:0:50.023,110.965,14.1274,0,0.000885,0,0
0:0:50.521,112.255,14.2928,0,0.000885,0,0
0:0:51.020,113.545,14.4583,0,0.000885,0,0
0:0:51.518,115.485,14.7065,0,0.000885,0,0
0:0:52.015,116.303,14.8099,0,0.000885,0,0
0:0:52.523,118.18,15.0444,0,0.000885,0,0
0:0:53.028,119.355,15.196,0,0.000885,0,0
0:0:53.533,121.463,15.4649,0,0.000885,0,0
0:0:54.030,122.05,15.5408,0,0.000885,0,0
0:0:54.527,123.225,15.6925,0,0.000885,0,0
0:0:55.025,124.986,15.9131,0,0.000885,0,0
0:0:55.524,125.925,16.0303,0,0.000885,0,0
0:0:56.020,127.152,16.1889,0,0.000885,0,0
0:0:56.517,128.736,16.3888,0,0.000885,0,0
0:0:57.014,130.262,16.5888,0,0.000885,0,0
0:0:57.522,131.672,16.768,0,0.000885,0,0
0:0:58.027,133.135,16.9542,0,0.000885,0,0
0:0:58.532,134.719,17.1542,0,0.000885,0,0
0:0:59.030,136.129,17.3334,0,0.000885,0,0
0:0:59.529,137.655,17.5265,0,0.000885,0,0
0:1:0.025,138.651,17.6506,0,0.000885,0,0
0:1:0.523,139.999,17.8229,0,0.000885,0,0
0:1:1.020,141.053,17.9608,0,0.000885,0,0
0:1:1.518,142.405,18.1332,0,0.000885,0,0
0:1:2.023,143.989,18.3332,0,0.000885,0,0
0:1:2.531,145.159,18.4848,0,0.000885,0,0
0:1:3.036,146.742,18.6848,0,0.000885,0,0
0:1:3.533,147.975,18.8434,0,0.000885,0,0
0:1:4.030,149.5,19.0364,0,0.000885,0,0
0:1:4.528,150.906,19.2157,0,0.000885,0,0
0:1:5.027,152.432,19.4087,0,0.000885,0,0
0:1:5.523,153.37,19.526,0,0.000885,0,0
0:1:6.022,155.132,19.7535,0,0.000885,0,0
0:1:6.519,156.773,19.9603,0,0.000885,0,0
0:1:7.021,157.712,20.0775,0,0.000885,0,0
0:1:7.530,159.411,20.2982,0,0.000885,0,0
0:1:8.034,160.701,20.4636,0,0.000885,0,0
0:1:8.538,161.991,20.6222,0,0.000885,0,0
0:1:9.037,163.107,20.767,0,0.000885,0,0
0:1:9.533,164.575,20.9532,0,0.000885,0,0
0:1:10.031,165.981,21.1324,0,0.000885,0,0
0:1:10.529,167.271,21.2979,0,0.000885,0,0
0:1:11.025,168.854,21.4979,0,0.000885,0,0
0:1:11.523,170.38,21.6909,0,0.000885,0,0
0:1:12.022,171.555,21.8426,0,0.000885,0,0
0:1:12.529,172.96,22.0219,0,0.000885,0,0
0:1:13.034,174.25,22.1873,0,0.000885,0,0
0:1:13.540,175.073,22.2908,0,0.000885,0,0
0:1:14.037,176.772,22.5045,0,0.000885,0,0
0:1:14.536,178.298,22.7044,0,0.000885,0,0
0:1:15.031,179.704,22.8837,0,0.000885,0,0
0:1:15.531,180.994,23.0423,0,0.000885,0,0
0:1:16.028,182.519,23.2422,0,0.000885,0,0
0:1:16.527,184.339,23.4698,0,0.000885,0,0
0:1:17.034,185.335,23.6008,0,0.000885,0,0
0:1:17.540,187.212,23.8352,0,0.000885,0,0
0:1:18.045,188.444,23.9938,0,0.000885,0,0
0:1:18.544,189.557,24.1385,0,0.000885,0,0
0:1:19.040,190.437,24.2489,0,0.000885,0,0
0:1:19.539,191.612,24.3937,0,0.000885,0,0
0:1:20.034,192.844,24.5522,0,0.000885,0,0
0:1:20.528,194.601,24.7798,0,0.000885,0,0
0:1:21.022,196.362,25.0004,0,0.000885,0,0
0:1:21.515,196.892,25.0693,0,0.000885,0,0
0:1:22.017,198.707,25.2969,0,0.000885,0,0
0:1:22.521,200.348,25.5106,0,0.000885,0,0
0:1:23.022,201.931,25.7105,0,0.000885,0,0
0:1:23.518,202.87,25.8278,0,0.000885,0,0
0:1:24.012,204.747,26.0691,0,0.000885,0,0
0:1:24.507,206.215,26.2552,0,0.000885,0,0
0:1:25.001,207.389,26.4069,0,0.000885,0,0
0:1:25.496,208.444,26.5379,0,0.000885,0,0
0:1:25.991,210.027,26.7448,0,0.000885,0,0
0:1:26.486,211.202,26.8896,0,0.000885,0,0
0:1:26.984,212.785,27.0895,0,0.000885,0,0
0:1:27.488,213.782,27.2205,0,0.000885,0,0
0:1:27.990,215.187,27.3998,0,0.000885,0,0
0:1:28.489,216.539,27.5721,0,0.000885,0,0
0:1:28.983,218.296,27.7928,0,0.000885,0,0
0:1:29.478,219.351,27.9307,0,0.000885,0,0
0:1:29.971,220.409,28.0617,0,0.000885,0,0
0:1:30.466,222.287,28.303,0,0.000885,0,0
0:1:30.971,223.634,28.4753,0,0.000885,0,0
0:1:31.463,224.101,28.5305,0,0.000885,0,0
0:1:31.958,226.214,28.7994,0,0.000885,0,0
0:1:32.462,227.211,28.9304,0,0.000885,0,0
0:1:32.962,229.146,29.1786,0,0.000885,0,0
0:1:33.463,230.262,29.3165,0,0.000885,0,0
0:1:33.966,231.494,29.4751,0,0.000885,0,0
0:1:34.472,232.958,29.6612,0,0.000885,0,0
0:1:34.964,234.426,29.8474,0,0.000885,0,0
0:1:35.466,236.067,30.0542,0,0.000885,0,0
0:1:35.962,237.419,30.2266,0,0.000885,0,0
0:1:36.464,240.76,30.6541,0,0.000885,0,0
0:1:36.959,241.583,30.7575,0,0.000885,0,0
0:1:37.463,242.17,30.8334,0,0.000885,0,0
0:1:37.961,242.521,30.8816,0,0.000885,0,0
0:1:38.462,243.869,31.0471,0,0.000885,0,0
0:1:38.956,244.572,31.1367,0,0.000885,0,0
0:1:39.458,245.804,31.2953,0,0.000885,0,0
0:1:39.953,246.979,31.447,0,0.000885,0,0
0:1:40.445,248.384,31.6263,0,0.000885,0,0
0:1:40.941,249.381,31.7504,0,0.000885,0,0
0:1:41.433,251.142,31.9779,0,0.000885,0,0
0:1:41.936,252.726,32.1778,0,0.000885,0,0
0:1:42.438,254.367,32.3847,0,0.000885,0,0
0:1:42.940,255.893,32.5846,0,0.000885,0,0
0:1:43.432,257.298,32.757,0,0.000885,0,0
0:1:43.929,258.531,32.9156,0,0.000885,0,0
0:1:44.421,260.644,33.1845,0,0.000885,0,0
0:1:44.916,261.582,33.3086,0,0.000885,0,0
0:1:45.411,262.752,33.4534,0,0.000885,0,0
0:1:45.905,263.984,33.6119,0,0.000885,0,0
0:1:46.400,264.865,33.7223,0,0.000885,0,0
0:1:46.902,265.803,33.8464,0,0.000885,0,0
0:1:47.404,266.858,33.9774,0,0.000885,0,0
0:1:47.903,267.214,34.0256,0,0.000885,0,0
0:1:48.399,268.383,34.1704,0,0.000885,0,0
0:1:48.892,269.086,34.26,0,0.000885,0,0
0:1:49.387,269.967,34.3704,0,0.000885,0,0
0:1:49.883,271.199,34.5289,0,0.000885,0,0
0:1:50.378,273.192,34.7841,0,0.000885,0,0
0:1:50.872,273.957,34.8806,0,0.000885,0,0
0:1:51.365,275.011,35.0185,0,0.000885,0,0
0:1:51.860,275.892,35.1288,0,0.000885,0,0
0:1:52.365,275.656,35.1012,0,0.000885,0,0
0:1:52.862,271.964,34.6255,0,0.000885,0,0
0:1:53.360,259.763,33.0742,0,0.000885,0,0
0:1:53.854,249.559,31.7779,0,0.000885,0,0
0:1:54.346,235.48,29.9853,0,0.000885,0,0
0:1:54.840,222.287,28.303,0,0.000885,0,0
0:1:55.331,209.791,26.7103,0,0.000885,0,0
0:1:55.607,197.768,25.1797,0,0.000885,0,0