File: DataFile2021-06-30_062203.csv
Test ID:,Date Tested:,Time:,Test Type:,Diameter Avg. (mm):,Cyl. Corr. Factor:,Height (mm):,Age (days):,Weight (kN):,Break Type:,Ramp Rate (MPa/s):,Load at Break (kN):,Stress at Break (MPa):
12,6/30/2021,06:22,Cylinder,100,1,200,0,3.6,3,0.25,507.85,64.66
Sample Time,Load (kN),Stress (MPa),Long. Strain,Trans. Strain,Chan1 Deflection (mm),Chan2 Deflection (mm)
0:0:4.911,5.45352,0.69637,0,0.000885,0,0
0:0:6.002,6.57002,0.834266,0,0.000885,0,0
0:0:7.095,8.74076,1.11006,0,0.000885,0,0
0:0:8.190,11.2629,1.43411,0,0.000885,0,0
0:0:9.284,13.3135,1.69611,0,0.000885,0,0
0:0:10.379,15.1907,1.93743,0,0.000885,0,0
0:0:11.493,17.9486,2.28216,0,0.000885,0,0
0:0:12.591,19.8836,2.53038,0,0.000885,0,0
0:0:13.684,22.1699,2.81996,0,0.000885,0,0
0:0:14.778,24.5141,3.12333,0,0.000885,0,0
0:0:15.893,26.3913,3.35775,0,0.000885,0,0
0:0:16.997,28.4464,3.61975,0,0.000885,0,0
0:0:18.091,29.5584,3.76454,0,0.000885,0,0
0:0:19.186,32.8457,4.18512,0,0.000885,0,0
0:0:20.283,35.8927,4.57122,0,0.000885,0,0
0:0:21.396,38.7663,4.93665,0,0.000885,0,0
0:0:22.491,40.8792,5.20554,0,0.000885,0,0
0:0:23.585,42.4049,5.39859,0,0.000885,0,0
0:0:24.681,43.8684,5.58475,0,0.000885,0,0
0:0:25.788,45.8078,5.83296,0,0.000885,0,0
0:0:26.898,48.5034,6.1777,0,0.000885,0,0
0:0:27.992,50.4384,6.41902,0,0.000885,0,0
0:0:29.085,52.8449,6.72928,0,0.000885,0,0
0:0:30.179,54.5441,6.94302,0,0.000885,0,0
0:0:31.292,57.1241,7.27397,0,0.000885,0,0
0:0:32.393,58.9434,7.50839,0,0.000885,0,0
0:0:33.490,61.0563,7.77039,0,0.000885,0,0
0:0:34.585,63.4583,8.08066,0,0.000885,0,0
0:0:35.691,65.0419,8.2806,0,0.000885,0,0
0:0:36.798,67.9777,8.65292,0,0.000885,0,0
0:0:37.890,69.7926,8.88734,0,0.000885,0,0
0:0:38.984,72.1991,9.19071,0,0.000885,0,0
0:0:40.082,74.312,9.45961,0,0.000885,0,0
0:0:41.194,76.5984,9.75608,0,0.000885,0,0
0:0:42.298,78.004,9.93535,0,0.000885,0,0
0:0:43.391,80.1169,10.1973,0,0.000885,0,0
0:0:44.483,82.3455,10.4869,0,0.000885,0,0
0:0:45.584,85.3347,10.8661,0,0.000885,0,0
0:0:46.696,87.0962,11.0868,0,0.000885,0,0
0:0:47.790,89.5027,11.397,0,0.000885,0,0
0:0:48.886,91.2019,11.6108,0,0.000885,0,0
0:0:49.983,93.7819,11.9417,0,0.000885,0,0
0:0:51.096,95.9526,12.2175,0,0.000885,0,0
0:0:52.197,98.5326,12.5485,0,0.000885,0,0
0:0:53.291,100.058,12.7415,0,0.000885,0,0
0:0:54.384,101.878,12.969,0,0.000885,0,0
0:0:55.488,104.573,13.3138,0,0.000885,0,0
0:0:56.601,107.095,13.6378,0,0.000885,0,0
0:0:57.697,108.795,13.8516,0,0.000885,0,0
0:0:58.791,110.378,14.0515,0,0.000885,0,0
0:0:59.886,112.842,14.3687,0,0.000885,0,0
0:1:0.995,115.365,14.6858,0,0.000885,0,0
0:1:2.097,117.535,14.9685,0,0.000885,0,0
0:1:3.192,119.648,15.2305,0,0.000885,0,0
0:1:4.287,121.699,15.4925,0,0.000885,0,0
0:1:5.382,123.87,15.7683,0,0.000885,0,0
0:1:6.497,126.156,16.0648,0,0.000885,0,0
0:1:7.600,128.091,16.3061,0,0.000885,0,0
0:1:8.694,130.026,16.5543,0,0.000885,0,0
0:1:9.788,132.548,16.8784,0,0.000885,0,0
0:1:10.899,134.488,17.1266,0,0.000885,0,0
0:1:12.002,136.36,17.361,0,0.000885,0,0
0:1:13.098,139.002,17.6988,0,0.000885,0,0
0:1:14.192,140.88,17.9402,0,0.000885,0,0
0:1:15.288,142.988,18.2091,0,0.000885,0,0
0:1:16.402,145.688,18.5469,0,0.000885,0,0
0:1:17.500,147.859,18.8227,0,0.000885,0,0
0:1:18.593,149.558,19.0433,0,0.000885,0,0
0:1:19.690,152.08,19.3605,0,0.000885,0,0
0:1:20.794,153.779,19.5811,0,0.000885,0,0
0:1:21.905,156.537,19.9327,0,0.000885,0,0
0:1:23.000,158.886,20.2292,0,0.000885,0,0
0:1:24.091,160.176,20.3947,0,0.000885,0,0
0:1:25.185,162.227,20.6567,0,0.000885,0,0
0:1:26.299,164.749,20.9739,0,0.000885,0,0
0:1:27.404,167.507,21.3255,0,0.000885,0,0
0:1:28.498,169.615,21.5944,0,0.000885,0,0
0:1:29.591,171.434,21.8288,0,0.000885,0,0
0:1:30.689,173.018,22.0287,0,0.000885,0,0
0:1:31.803,175.54,22.3528,0,0.000885,0,0
0:1:32.900,177.653,22.6217,0,0.000885,0,0
0:1:33.996,180.349,22.9595,0,0.000885,0,0
0:1:35.091,182.577,23.2491,0,0.000885,0,0
0:1:36.203,184.748,23.5249,0,0.000885,0,0
0:1:37.299,186.158,23.7042,0,0.000885,0,0
0:1:38.392,188.738,24.0282,0,0.000885,0,0
0:1:39.487,190.846,24.2971,0,0.000885,0,0
0:1:40.592,193.137,24.5936,0,0.000885,0,0
0:1:41.693,194.721,24.7935,0,0.000885,0,0
0:1:42.777,197.652,25.1659,0,0.000885,0,0
0:1:43.870,199.645,25.421,0,0.000885,0,0
0:1:44.954,201.931,25.7105,0,0.000885,0,0
0:1:46.059,203.693,25.9381,0,0.000885,0,0
0:1:47.154,205.392,26.1518,0,0.000885,0,0
0:1:48.240,207.914,26.4759,0,0.000885,0,0
0:1:49.327,210.263,26.7723,0,0.000885,0,0
0:1:50.412,211.669,26.9516,0,0.000885,0,0
0:1:51.518,214.427,27.3032,0,0.000885,0,0
0:1:52.610,216.713,27.5928,0,0.000885,0,0
0:1:53.693,218.941,27.8755,0,0.000885,0,0
0:1:54.776,220.876,28.1237,0,0.000885,0,0
0:1:55.884,222.874,28.3788,0,0.000885,0,0
0:1:56.975,225.334,28.6891,0,0.000885,0,0
0:1:58.073,227.624,28.9787,0,0.000885,0,0
0:1:59.159,229.439,29.2131,0,0.000885,0,0
0:2:0.247,230.849,29.3924,0,0.000885,0,0
0:2:1.352,233.545,29.7371,0,0.000885,0,0
0:2:2.439,235.774,30.0198,0,0.000885,0,0
0:2:3.526,238.767,30.399,0,0.000885,0,0
0:2:4.613,239.999,30.5576,0,0.000885,0,0
0:2:5.712,242.17,30.8334,0,0.000885,0,0
0:2:6.814,244.105,31.0816,0,0.000885,0,0
0:2:7.899,246.801,31.4263,0,0.000885,0,0
0:2:8.991,248.562,31.6469,0,0.000885,0,0
0:2:10.089,251.142,31.9779,0,0.000885,0,0
0:2:11.194,253.429,32.2675,0,0.000885,0,0
0:2:12.290,254.954,32.4605,0,0.000885,0,0
0:2:13.375,257.476,32.7846,0,0.000885,0,0
0:2:14.492,259.878,33.0879,0,0.000885,0,0
0:2:15.589,261.818,33.3362,0,0.000885,0,0
0:2:16.688,263.811,33.5913,0,0.000885,0,0
0:2:17.792,265.568,33.8119,0,0.000885,0,0
0:2:18.877,268.268,34.1566,0,0.000885,0,0
0:2:19.961,270.906,34.4945,0,0.000885,0,0
0:2:21.064,272.609,34.7082,0,0.000885,0,0
0:2:22.178,274.308,34.9288,0,0.000885,0,0
0:2:23.287,276.421,35.1977,0,0.000885,0,0
0:2:24.391,278.823,35.5011,0,0.000885,0,0
0:2:25.492,281.172,35.7976,0,0.000885,0,0
0:2:26.596,283.574,36.1078,0,0.000885,0,0
0:2:27.695,285.687,36.3767,0,0.000885,0,0
0:2:28.790,286.861,36.5215,0,0.000885,0,0
0:2:29.889,289.441,36.8525,0,0.000885,0,0
0:2:30.994,292.079,37.1903,0,0.000885,0,0
0:2:32.091,294.134,37.4523,0,0.000885,0,0
0:2:33.188,296.185,37.7143,0,0.000885,0,0
0:2:34.293,298.24,37.9694,0,0.000885,0,0
0:2:35.390,300.936,38.3142,0,0.000885,0,0
0:2:36.490,303.048,38.5831,0,0.000885,0,0
0:2:37.594,304.863,38.8175,0,0.000885,0,0
0:2:38.690,306.861,39.0726,0,0.000885,0,0
0:2:39.785,309.031,39.3484,0,0.000885,0,0
0:2:40.894,310.966,39.5966,0,0.000885,0,0
0:2:41.988,312.843,39.831,0,0.000885,0,0
0:2:43.094,315.539,40.1758,0,0.000885,0,0
0:2:44.190,317.652,40.4446,0,0.000885,0,0
0:2:45.294,319.938,40.7342,0,0.000885,0,0
0:2:46.397,322.345,41.0445,0,0.000885,0,0
0:2:47.494,324.338,41.2927,0,0.000885,0,0
0:2:48.591,325.628,41.4582,0,0.000885,0,0
0:2:49.698,328.443,41.8167,0,0.000885,0,0
0:2:50.798,331.081,42.1545,0,0.000885,0,0
0:2:51.894,333.43,42.451,0,0.000885,0,0
0:2:52.990,335.365,42.6992,0,0.000885,0,0
0:2:54.085,337.825,43.0164,0,0.000885,0,0
0:2:55.193,339.47,43.2232,0,0.000885,0,0
0:2:56.298,341.815,43.5197,0,0.000885,0,0
0:2:57.393,343.634,43.7541,0,0.000885,0,0
0:2:58.491,346.45,44.1127,0,0.000885,0,0
0:2:59.594,348.149,44.3264,0,0.000885,0,0
0:3:0.695,349.968,44.5608,0,0.000885,0,0
0:3:1.798,352.077,44.8297,0,0.000885,0,0
0:3:2.895,354.016,45.0779,0,0.000885,0,0
0:3:3.993,356.538,45.3951,0,0.000885,0,0
0:3:5.087,358.998,45.7122,0,0.000885,0,0
0:3:6.194,361.578,46.0363,0,0.000885,0,0
0:3:7.294,362.988,46.2156,0,0.000885,0,0
0:3:8.397,365.217,46.4982,0,0.000885,0,0
0:3:9.493,367.561,46.8016,0,0.000885,0,0
0:3:10.600,369.732,47.0774,0,0.000885,0,0
0:3:11.703,371.609,47.3118,0,0.000885,0,0
0:3:12.800,373.602,47.5669,0,0.000885,0,0
0:3:13.885,376.302,47.9117,0,0.000885,0,0
0:3:14.995,378.295,48.1668,0,0.000885,0,0
0:3:16.099,380.114,48.3943,0,0.000885,0,0
0:3:17.196,382.636,48.7184,0,0.000885,0,0
0:3:18.294,384.922,49.0079,0,0.000885,0,0
0:3:19.399,387.093,49.2837,0,0.000885,0,0
0:3:20.497,389.38,49.5802,0,0.000885,0,0
0:3:21.599,390.847,49.7664,0,0.000885,0,0
0:3:22.695,393.312,50.0766,0,0.000885,0,0
0:3:23.799,395.54,50.3593,0,0.000885,0,0
0:3:24.895,398,50.6765,0,0.000885,0,0
0:3:26.002,399.526,50.8695,0,0.000885,0,0
0:3:27.096,401.932,51.1729,0,0.000885,0,0
0:3:28.194,404.69,51.5245,0,0.000885,0,0
0:3:29.300,406.39,51.7452,0,0.000885,0,0
0:3:30.398,408.325,51.9865,0,0.000885,0,0
0:3:31.502,410.611,52.2829,0,0.000885,0,0
0:3:32.600,413.075,52.5932,0,0.000885,0,0
0:3:33.697,415.068,52.8483,0,0.000885,0,0
0:3:34.794,417.71,53.1862,0,0.000885,0,0
0:3:35.899,419.409,53.3999,0,0.000885,0,0
0:3:37.003,420.993,53.5998,0,0.000885,0,0
0:3:38.089,423.106,53.8687,0,0.000885,0,0
0:3:39.194,425.392,54.1652,0,0.000885,0,0
0:3:40.294,427.505,54.4341,0,0.000885,0,0
0:3:41.399,430.259,54.7857,0,0.000885,0,0
0:3:42.495,432.256,55.034,0,0.000885,0,0
0:3:43.591,434.422,55.3097,0,0.000885,0,0
0:3:44.699,436.593,55.5855,0,0.000885,0,0
0:3:45.798,437.358,55.689,0,0.000885,0,0
0:3:46.890,437.474,55.7027,0,0.000885,0,0
0:3:48.003,438.528,55.8337,0,0.000885,0,0
0:3:49.097,444.102,56.5439,0,0.000885,0,0
0:3:50.202,441.17,56.1716,0,0.000885,0,0
0:3:51.301,447.736,57.0059,0,0.000885,0,0
0:3:52.389,452.9,57.6677,0,0.000885,0,0
0:3:53.498,457.121,58.2055,0,0.000885,0,0
0:3:54.602,460.115,58.5848,0,0.000885,0,0
0:3:55.704,453.781,57.7781,0,0.000885,0,0
0:3:56.796,458.469,58.371,0,0.000885,0,0
0:3:57.904,464.101,59.0881,0,0.000885,0,0
0:3:59.001,467.913,59.5776,0,0.000885,0,0
0:4:0.097,469.381,59.7638,0,0.000885,0,0
0:4:1.200,471.783,60.0671,0,0.000885,0,0
0:4:2.289,473.429,60.2809,0,0.000885,0,0
0:4:3.397,474.367,60.3981,0,0.000885,0,0
0:4:4.503,475.421,60.5291,0,0.000885,0,0
0:4:5.610,477.299,60.7704,0,0.000885,0,0
0:4:6.712,479.936,61.1082,0,0.000885,0,0
0:4:7.805,481.636,61.322,0,0.000885,0,0
0:4:8.899,484.22,61.6529,0,0.000885,0,0
0:4:10.003,485.216,61.777,0,0.000885,0,0
0:4:11.110,486.68,61.9632,0,0.000885,0,0
0:4:12.204,488.619,62.2114,0,0.000885,0,0
0:4:13.299,490.203,62.4113,0,0.000885,0,0
0:4:14.404,492.663,62.7285,0,0.000885,0,0
0:4:15.505,495.305,63.0663,0,0.000885,0,0
0:4:16.610,498.41,63.4593,0,0.000885,0,0
0:4:17.699,499.117,63.549,0,0.000885,0,0
0:4:18.803,500.874,63.7765,0,0.000885,0,0
0:4:19.899,500.816,63.7627,0,0.000885,0,0
0:4:21.003,505.216,64.3281,0,0.000885,0,0
0:4:22.101,502.458,63.9765,0,0.000885,0,0
0:4:23.204,445.743,56.7507,0,0.000885,0,0
0:4:24.299,447.562,56.9852,0,0.000885,0,0
0:4:25.404,381.168,48.5322,0,0.000885,0,0
0:4:26.434,370.497,47.1739,0,0.000885,0,0