File: DataFile2021-06-06_064912.csv
Test ID:,Date Tested:,Time:,Test Type:,Diameter Avg. (mm):,Cyl. Corr. Factor:,Height (mm):,Age (days):,Weight (kN):,Break Type:,Ramp Rate (MPa/s):,Load at Break (kN):,Stress at Break (MPa):
12,6/6/2021,06:49,Cylinder,150,1,300,0,13.39,3,0.25,1830.03,103.56
Sample Time,Load (kN),Stress (MPa),Long. Strain,Trans. Strain,Chan1 Deflection (mm),Chan2 Deflection (mm)
0:0:15.749,5.21776,0.296475,0,0.000885,0,0
0:0:17.560,12.1392,0.689476,0,0.000885,0,0
0:0:19.360,20.4707,1.15832,0,0.000885,0,0
0:0:21.163,29.6785,1.68232,0,0.000885,0,0
0:0:22.980,37.3606,2.11669,0,0.000885,0,0
0:0:24.771,45.4519,2.57174,0,0.000885,0,0
0:0:26.574,53.3119,3.0199,0,0.000885,0,0
0:0:28.381,60.4691,3.4198,0,0.000885,0,0
0:0:30.172,69.6769,3.9438,0,0.000885,0,0
0:0:31.977,77.359,4.37817,0,0.000885,0,0
0:0:33.780,84.1648,4.76428,0,0.000885,0,0
0:0:35.573,92.9011,5.25381,0,0.000885,0,0
0:0:37.388,100.294,5.67439,0,0.000885,0,0
0:0:39.181,108.563,6.14323,0,0.000885,0,0
0:0:40.973,116.775,6.60518,0,0.000885,0,0
0:0:42.792,125.16,7.08092,0,0.000885,0,0
0:0:44.584,132.081,7.47392,0,0.000885,0,0
0:0:46.378,140.292,7.93587,0,0.000885,0,0
0:0:48.192,148.504,8.40471,0,0.000885,0,0
0:0:49.985,156.537,8.85976,0,0.000885,0,0
0:0:51.796,164.749,9.32171,0,0.000885,0,0
0:0:53.593,172.493,9.76298,0,0.000885,0,0
0:0:55.384,180.411,10.2111,0,0.000885,0,0
0:0:57.196,187.742,10.6248,0,0.000885,0,0
0:0:58.988,196.598,11.1281,0,0.000885,0,0
0:1:0.768,204.222,11.5556,0,0.000885,0,0
0:1:2.571,211.962,11.9969,0,0.000885,0,0
0:1:4.360,219.644,12.4312,0,0.000885,0,0
0:1:6.169,227.976,12.9001,0,0.000885,0,0
0:1:7.974,235.6,13.3345,0,0.000885,0,0
0:1:9.762,243.634,13.7895,0,0.000885,0,0
0:1:11.567,251.551,14.2377,0,0.000885,0,0
0:1:13.364,259.763,14.6996,0,0.000885,0,0
0:1:15.161,267.681,15.1478,0,0.000885,0,0
0:1:16.971,275.834,15.6097,0,0.000885,0,0
0:1:18.772,283.81,16.0579,0,0.000885,0,0
0:1:20.564,290.847,16.4578,0,0.000885,0,0
0:1:22.367,299.236,16.9335,0,0.000885,0,0
0:1:24.168,307.506,17.4024,0,0.000885,0,0
0:1:25.967,315.539,17.8574,0,0.000885,0,0
0:1:27.768,323.341,18.2987,0,0.000885,0,0
0:1:29.569,330.965,18.7262,0,0.000885,0,0
0:1:31.359,338.999,19.1812,0,0.000885,0,0
0:1:33.171,347.153,19.6432,0,0.000885,0,0
0:1:34.967,355.186,20.0982,0,0.000885,0,0
0:1:36.769,362.579,20.5188,0,0.000885,0,0
0:1:38.569,371.493,21.0221,0,0.000885,0,0
0:1:40.362,379.527,21.4772,0,0.000885,0,0
0:1:42.176,387.151,21.9115,0,0.000885,0,0
0:1:43.968,394.366,22.3183,0,0.000885,0,0
0:1:45.758,401.875,22.7389,0,0.000885,0,0
0:1:47.568,411.434,23.2836,0,0.000885,0,0
0:1:49.372,418.649,23.6904,0,0.000885,0,0
0:1:51.174,426.389,24.1317,0,0.000885,0,0
0:1:52.973,434.422,24.5867,0,0.000885,0,0
0:1:54.766,442.985,25.0693,0,0.000885,0,0
0:1:56.566,450.551,25.4968,0,0.000885,0,0
0:1:58.367,458.821,25.9657,0,0.000885,0,0
0:2:0.171,466.507,26.4,0,0.000885,0,0
0:2:1.973,474.305,26.8413,0,0.000885,0,0
0:2:3.772,482.81,27.3239,0,0.000885,0,0
0:2:5.562,490.728,27.7721,0,0.000885,0,0
0:2:7.373,498.41,28.2065,0,0.000885,0,0
0:2:9.176,506.154,28.6408,0,0.000885,0,0
0:2:10.968,514.188,29.0959,0,0.000885,0,0
0:2:12.776,521.812,29.5302,0,0.000885,0,0
0:2:14.571,529.966,29.9922,0,0.000885,0,0
0:2:16.374,537.941,30.4404,0,0.000885,0,0
0:2:18.172,545.859,30.8885,0,0.000885,0,0
0:2:19.972,554.07,31.3574,0,0.000885,0,0
0:2:21.776,561.753,31.7917,0,0.000885,0,0
0:2:23.572,569.377,32.2192,0,0.000885,0,0
0:2:25.371,578.002,32.7087,0,0.000885,0,0
0:2:27.182,585.8,33.15,0,0.000885,0,0
0:2:28.980,594.073,33.6188,0,0.000885,0,0
0:2:30.775,601.413,34.0325,0,0.000885,0,0
0:2:32.590,609.985,34.5152,0,0.000885,0,0
0:2:34.375,617.435,34.9426,0,0.000885,0,0
0:2:36.163,625.242,35.3839,0,0.000885,0,0
0:2:37.974,633.64,35.8596,0,0.000885,0,0
0:2:39.772,641.856,36.3216,0,0.000885,0,0
0:2:41.577,649.427,36.7491,0,0.000885,0,0
0:2:43.379,657.234,37.1903,0,0.000885,0,0
0:2:45.175,665.805,37.6798,0,0.000885,0,0
0:2:46.984,673.318,38.1004,0,0.000885,0,0
0:2:48.783,680.889,38.5279,0,0.000885,0,0
0:2:50.571,688.816,38.9761,0,0.000885,0,0
0:2:52.391,697.388,39.4656,0,0.000885,0,0
0:2:54.180,704.839,39.8862,0,0.000885,0,0
0:2:55.972,712.529,40.3205,0,0.000885,0,0
0:2:57.787,721.395,40.8239,0,0.000885,0,0
0:2:59.572,728.966,41.2513,0,0.000885,0,0
0:3:1.372,736.479,41.6788,0,0.000885,0,0
0:3:3.179,745.166,42.1683,0,0.000885,0,0
0:3:4.967,752.857,42.6027,0,0.000885,0,0
0:3:6.791,760.606,43.044,0,0.000885,0,0
0:3:8.585,768.88,43.5128,0,0.000885,0,0
0:3:10.372,777.042,43.9748,0,0.000885,0,0
0:3:12.179,784.671,44.4022,0,0.000885,0,0
0:3:13.965,791.832,44.809,0,0.000885,0,0
0:3:15.777,800.635,45.3055,0,0.000885,0,0
0:3:17.584,808.091,45.726,0,0.000885,0,0
0:3:19.375,816.369,46.1949,0,0.000885,0,0
0:3:21.167,823.997,46.6292,0,0.000885,0,0
0:3:22.985,831.982,47.0774,0,0.000885,0,0
0:3:24.777,840.202,47.5462,0,0.000885,0,0
0:3:26.577,848.596,48.022,0,0.000885,0,0
0:3:28.374,856.345,48.4564,0,0.000885,0,0
0:3:30.175,863.68,48.8769,0,0.000885,0,0
0:3:31.986,872.189,49.3527,0,0.000885,0,0
0:3:33.783,879.707,49.7801,0,0.000885,0,0
0:3:35.576,888.101,50.2559,0,0.000885,0,0
0:3:37.384,896.139,50.7109,0,0.000885,0,0
0:3:39.172,904.065,51.1591,0,0.000885,0,0
0:3:40.975,911.463,51.5797,0,0.000885,0,0
0:3:42.784,919.443,52.0278,0,0.000885,0,0
0:3:44.573,927.663,52.4967,0,0.000885,0,0
0:3:46.379,935.643,52.9448,0,0.000885,0,0
0:3:48.182,943.686,53.3999,0,0.000885,0,0
0:3:49.979,951.555,53.8481,0,0.000885,0,0
0:3:51.780,959.593,54.3031,0,0.000885,0,0
0:3:53.578,967.11,54.7237,0,0.000885,0,0
0:3:55.372,975.735,55.2132,0,0.000885,0,0
0:3:57.184,983.72,55.6683,0,0.000885,0,0
0:3:58.984,991.526,56.1095,0,0.000885,0,0
0:4:0.773,999.16,56.5439,0,0.000885,0,0
0:4:2.581,1006.85,56.9783,0,0.000885,0,0
0:4:4.379,1015.07,57.4402,0,0.000885,0,0
0:4:6.173,1022.82,57.8815,0,0.000885,0,0
0:4:7.987,1031.32,58.3641,0,0.000885,0,0
0:4:9.773,1039.19,58.8054,0,0.000885,0,0
0:4:11.575,1046.47,59.2191,0,0.000885,0,0
0:4:13.385,1055.45,59.7293,0,0.000885,0,0
0:4:15.179,1063.49,60.1843,0,0.000885,0,0
0:4:16.984,1070.3,60.5635,0,0.000885,0,0
0:4:18.785,1078.93,61.0531,0,0.000885,0,0
0:4:20.574,1086.5,61.4806,0,0.000885,0,0
0:4:22.382,1094.66,61.9425,0,0.000885,0,0
0:4:24.171,1101.53,62.3355,0,0.000885,0,0
0:4:25.975,1110.92,62.8664,0,0.000885,0,0
0:4:27.790,1118.96,63.3215,0,0.000885,0,0
0:4:29.583,1126.01,63.7213,0,0.000885,0,0
0:4:31.381,1134.58,64.204,0,0.000885,0,0
0:4:33.182,1142.27,64.6383,0,0.000885,0,0
0:4:34.989,1150.02,65.0796,0,0.000885,0,0
0:4:36.790,1158.7,65.5691,0,0.000885,0,0
0:4:38.592,1165.92,65.9759,0,0.000885,0,0
0:4:40.385,1174.61,66.4724,0,0.000885,0,0
0:4:42.191,1182.3,66.9067,0,0.000885,0,0
0:4:43.984,1191.05,67.3963,0,0.000885,0,0
0:4:45.771,1198.56,67.8237,0,0.000885,0,0
0:4:47.590,1206.19,68.2581,0,0.000885,0,0
0:4:49.379,1214.12,68.7063,0,0.000885,0,0
0:4:51.178,1222.04,69.1544,0,0.000885,0,0
0:4:52.989,1229.2,69.5612,0,0.000885,0,0
0:4:54.771,1238.01,70.0576,0,0.000885,0,0
0:4:56.594,1246.16,70.5196,0,0.000885,0,0
0:4:58.393,1253.33,70.9264,0,0.000885,0,0
0:5:0.184,1261.84,71.4021,0,0.000885,0,0
0:5:1.985,1269.41,71.8365,0,0.000885,0,0
0:5:3.778,1277.04,72.264,0,0.000885,0,0
0:5:5.586,1285.73,72.7604,0,0.000885,0,0
0:5:7.395,1293.36,73.1878,0,0.000885,0,0
0:5:9.186,1301.1,73.6291,0,0.000885,0,0
0:5:10.977,1309.21,74.0842,0,0.000885,0,0
0:5:12.797,1317.13,74.5323,0,0.000885,0,0
0:5:14.592,1325.05,74.9805,0,0.000885,0,0
0:5:16.381,1332.92,75.4286,0,0.000885,0,0
0:5:18.190,1341.2,75.8975,0,0.000885,0,0
0:5:19.990,1349.12,76.3456,0,0.000885,0,0
0:5:21.791,1357.05,76.7938,0,0.000885,0,0
0:5:23.588,1364.97,77.242,0,0.000885,0,0
0:5:25.380,1373.31,77.7108,0,0.000885,0,0
0:5:27.188,1380.7,78.1314,0,0.000885,0,0
0:5:28.983,1389.22,78.614,0,0.000885,0,0
0:5:30.787,1397.32,79.0691,0,0.000885,0,0
0:5:32.604,1404.48,79.4759,0,0.000885,0,0
0:5:34.395,1413.34,79.9792,0,0.000885,0,0
0:5:36.176,1420.91,80.4067,0,0.000885,0,0
0:5:37.993,1429.31,80.8824,0,0.000885,0,0
0:5:39.789,1436.53,81.2892,0,0.000885,0,0
0:5:41.600,1444.98,81.7718,0,0.000885,0,0
0:5:43.399,1453.14,82.2338,0,0.000885,0,0
0:5:45.197,1460.18,82.6268,0,0.000885,0,0
0:5:46.997,1468.52,83.1025,0,0.000885,0,0
0:5:48.795,1476.2,83.5369,0,0.000885,0,0
0:5:50.585,1484.21,83.9919,0,0.000885,0,0
0:5:52.396,1492.69,84.4677,0,0.000885,0,0
0:5:54.196,1500.1,84.8883,0,0.000885,0,0
0:5:55.986,1508.23,85.3502,0,0.000885,0,0
0:5:57.795,1516.89,85.8397,0,0.000885,0,0
0:5:59.583,1524.66,86.281,0,0.000885,0,0
0:6:1.383,1531.73,86.6809,0,0.000885,0,0
0:6:3.192,1540.32,87.1635,0,0.000885,0,0
0:6:4.974,1548.21,87.6117,0,0.000885,0,0
0:6:6.774,1555.45,88.0185,0,0.000885,0,0
0:6:8.581,1563.87,88.4942,0,0.000885,0,0
0:6:10.392,1572.42,88.9837,0,0.000885,0,0
0:6:12.192,1579.66,89.3905,0,0.000885,0,0
0:6:13.986,1587.96,89.8594,0,0.000885,0,0
0:6:15.780,1595.38,90.28,0,0.000885,0,0
0:6:17.597,1604.15,90.7764,0,0.000885,0,0
0:6:19.387,1611.8,91.2107,0,0.000885,0,0
0:6:21.187,1619.11,91.6244,0,0.000885,0,0
0:6:22.995,1627.76,92.114,0,0.000885,0,0
0:6:24.794,1635.42,92.5483,0,0.000885,0,0
0:6:26.599,1643.48,93.0034,0,0.000885,0,0
0:6:28.402,1651.61,93.4653,0,0.000885,0,0
0:6:30.187,1659.15,93.8859,0,0.000885,0,0
0:6:32.000,1667.22,94.3479,0,0.000885,0,0
0:6:33.802,1675.52,94.8167,0,0.000885,0,0
0:6:35.595,1683.11,95.2442,0,0.000885,0,0
0:6:37.403,1691,95.6923,0,0.000885,0,0
0:6:39.194,1699.19,96.1543,0,0.000885,0,0
0:6:40.996,1707.32,96.6162,0,0.000885,0,0
0:6:42.805,1714.85,97.0437,0,0.000885,0,0
0:6:44.592,1722.39,97.4643,0,0.000885,0,0
0:6:46.398,1730.99,97.9538,0,0.000885,0,0
0:6:48.201,1738.7,98.3882,0,0.000885,0,0
0:6:49.999,1746.71,98.8432,0,0.000885,0,0
0:6:51.800,1755.07,99.319,0,0.000885,0,0
0:6:53.592,1762.55,99.7396,0,0.000885,0,0
0:6:55.378,1770.79,100.208,0,0.000885,0,0
0:6:57.190,1779.04,100.67,0,0.000885,0,0
0:6:58.998,1786.86,101.119,0,0.000885,0,0
0:7:0.785,1794.05,101.525,0,0.000885,0,0
0:7:2.597,1802.7,102.015,0,0.000885,0,0
0:7:4.382,1810.48,102.449,0,0.000885,0,0
0:7:6.184,1818.07,102.884,0,0.000885,0,0
0:7:7.991,1826.14,103.339,0,0.000885,0,0
0:7:9.787,1791.28,101.367,0,0.000885,0,0
0:7:11.600,1645.25,93.0999,0,0.000885,0,0
0:7:11.922,1500.87,84.9296,0,0.000885,0,0