File: DataFile2021-07-17_043308.csv
Test ID:,Date Tested:,Time:,Test Type:,Diameter Avg. (mm):,Cyl. Corr. Factor:,Height (mm):,Age (days):,Weight (kN):,Break Type:,Ramp Rate (MPa/s):,Load at Break (kN):,Stress at Break (MPa):
12,7/17/2021,04:33,Cylinder,100,1,200,0,3.6,3,0.25,1225.03,155.97
Sample Time,Load (kN),Stress (MPa),Long. Strain,Trans. Strain,Chan1 Deflection (mm),Chan2 Deflection (mm)
0:0:19.131,5.21776,0.661897,0,0.000885,0,0
0:0:21.726,9.61706,1.22727,0,0.000885,0,0
0:0:24.332,14.43,1.83401,0,0.000885,0,0
0:0:26.943,20.057,2.55106,0,0.000885,0,0
0:0:29.534,26.16,3.33017,0,0.000885,0,0
0:0:32.143,31.0263,3.9507,0,0.000885,0,0
0:0:34.741,35.5991,4.52986,0,0.000885,0,0
0:0:37.348,40.8792,5.20554,0,0.000885,0,0
0:0:39.944,45.572,5.80539,0,0.000885,0,0
0:0:42.543,51.0255,6.49486,0,0.000885,0,0
0:0:45.140,56.7727,7.22571,0,0.000885,0,0
0:0:47.740,60.8784,7.74971,0,0.000885,0,0
0:0:50.351,66.7456,8.50124,0,0.000885,0,0
0:0:52.949,71.3183,9.0804,0,0.000885,0,0
0:0:55.556,76.6562,9.76298,0,0.000885,0,0
0:0:58.147,81.5848,10.3904,0,0.000885,0,0
0:1:0.756,86.9183,11.0661,0,0.000885,0,0
0:1:3.347,92.2561,11.7487,0,0.000885,0,0
0:1:5.957,96.949,12.3416,0,0.000885,0,0
0:1:8.543,102.403,13.038,0,0.000885,0,0
0:1:11.153,107.798,13.7275,0,0.000885,0,0
0:1:13.741,112.549,14.3273,0,0.000885,0,0
0:1:16.354,117.3,14.934,0,0.000885,0,0
0:1:18.940,122.695,15.6235,0,0.000885,0,0
0:1:21.554,127.797,16.2716,0,0.000885,0,0
0:1:24.143,132.726,16.8991,0,0.000885,0,0
0:1:26.755,138.415,17.623,0,0.000885,0,0
0:1:29.343,142.872,18.1884,0,0.000885,0,0
0:1:31.956,148.446,18.8985,0,0.000885,0,0
0:1:34.543,152.961,19.4777,0,0.000885,0,0
0:1:37.149,158.415,20.1672,0,0.000885,0,0
0:1:39.739,163.517,20.8222,0,0.000885,0,0
0:1:42.345,168.387,21.4427,0,0.000885,0,0
0:1:44.951,173.547,22.0977,0,0.000885,0,0
0:1:47.554,179.179,22.8148,0,0.000885,0,0
0:1:50.151,183.164,23.3181,0,0.000885,0,0
0:1:52.753,188.974,24.0627,0,0.000885,0,0
0:1:55.351,193.956,24.697,0,0.000885,0,0
0:1:57.925,199.645,25.421,0,0.000885,0,0
0:2:0.533,204.044,25.9794,0,0.000885,0,0
0:2:3.142,209.146,26.6276,0,0.000885,0,0
0:2:5.733,214.075,27.255,0,0.000885,0,0
0:2:8.342,219.471,27.9445,0,0.000885,0,0
0:2:10.943,224.924,28.6408,0,0.000885,0,0
0:2:13.538,229.502,29.22,0,0.000885,0,0
0:2:16.138,235.129,29.937,0,0.000885,0,0
0:2:18.733,240.057,30.5645,0,0.000885,0,0
0:2:21.347,244.924,31.185,0,0.000885,0,0
0:2:23.939,249.968,31.8262,0,0.000885,0,0
0:2:26.535,255.835,32.5708,0,0.000885,0,0
0:2:29.141,260.644,33.1845,0,0.000885,0,0
0:2:31.730,265.101,33.7567,0,0.000885,0,0
0:2:34.351,271.493,34.5703,0,0.000885,0,0
0:2:36.949,275.247,35.0461,0,0.000885,0,0
0:2:39.539,280.994,35.7769,0,0.000885,0,0
0:2:42.154,286.038,36.4181,0,0.000885,0,0
0:2:44.737,290.496,36.9904,0,0.000885,0,0
0:2:47.350,295.891,37.673,0,0.000885,0,0
0:2:49.956,301.051,38.328,0,0.000885,0,0
0:2:52.547,305.802,38.9347,0,0.000885,0,0
0:2:55.150,311.669,39.6862,0,0.000885,0,0
0:2:57.748,316.242,40.2654,0,0.000885,0,0
0:3:0.357,321.17,40.8928,0,0.000885,0,0
0:3:2.949,326.802,41.6099,0,0.000885,0,0
0:3:5.550,332.255,42.3062,0,0.000885,0,0
0:3:8.151,337.3,42.9474,0,0.000885,0,0
0:3:10.752,341.873,43.5266,0,0.000885,0,0
0:3:13.326,346.975,44.1816,0,0.000885,0,0
0:3:15.917,352.197,44.8435,0,0.000885,0,0
0:3:18.483,357.828,45.5606,0,0.000885,0,0
0:3:21.077,362.637,46.1742,0,0.000885,0,0
0:3:23.653,367.503,46.7947,0,0.000885,0,0
0:3:26.247,372.018,47.367,0,0.000885,0,0
0:3:28.855,378.295,48.1668,0,0.000885,0,0
0:3:31.445,382.578,48.7115,0,0.000885,0,0
0:3:34.042,387.796,49.3734,0,0.000885,0,0
0:3:36.633,392.667,49.9939,0,0.000885,0,0
0:3:39.201,397.769,50.642,0,0.000885,0,0
0:3:41.795,403.107,51.3246,0,0.000885,0,0
0:3:44.364,408.031,51.952,0,0.000885,0,0
0:3:46.957,412.546,52.5243,0,0.000885,0,0
0:3:49.537,418.119,53.2344,0,0.000885,0,0
0:3:52.146,423.631,53.9377,0,0.000885,0,0
0:3:54.749,427.679,54.4548,0,0.000885,0,0
0:3:57.354,433.777,55.2339,0,0.000885,0,0
0:3:59.943,438.412,55.82,0,0.000885,0,0
0:4:2.523,443.341,56.4474,0,0.000885,0,0
0:4:5.104,448.616,57.1231,0,0.000885,0,0
0:4:7.687,454.012,57.8056,0,0.000885,0,0
0:4:10.273,458.647,58.3986,0,0.000885,0,0
0:4:12.863,463.571,59.026,0,0.000885,0,0
0:4:15.452,468.851,59.6948,0,0.000885,0,0
0:4:18.052,474.305,60.3912,0,0.000885,0,0
0:4:20.659,479.349,61.0324,0,0.000885,0,0
0:4:23.245,484.571,61.6943,0,0.000885,0,0
0:4:25.862,489.322,62.301,0,0.000885,0,0
0:4:28.430,494.304,62.9353,0,0.000885,0,0
0:4:31.030,499.704,63.6248,0,0.000885,0,0
0:4:33.602,504.806,64.2729,0,0.000885,0,0
0:4:36.199,509.909,64.921,0,0.000885,0,0
0:4:38.772,514.717,65.5347,0,0.000885,0,0
0:4:41.367,519.935,66.2035,0,0.000885,0,0
0:4:43.946,524.979,66.8447,0,0.000885,0,0
0:4:46.561,530.201,67.5066,0,0.000885,0,0
0:4:49.161,535.068,68.1271,0,0.000885,0,0
0:4:51.760,540.406,68.8097,0,0.000885,0,0
0:4:54.342,545.508,69.4578,0,0.000885,0,0
0:4:56.930,550.961,70.1542,0,0.000885,0,0
0:4:59.516,555.538,70.7333,0,0.000885,0,0
0:5:2.096,560.814,71.4021,0,0.000885,0,0
0:5:4.678,565.155,71.9606,0,0.000885,0,0
0:5:7.257,571.08,72.7121,0,0.000885,0,0
0:5:9.851,575.653,73.2913,0,0.000885,0,0
0:5:12.439,580.991,73.9739,0,0.000885,0,0
0:5:15.027,586.271,74.6495,0,0.000885,0,0
0:5:17.610,591.315,75.2907,0,0.000885,0,0
0:5:20.217,596.013,75.8837,0,0.000885,0,0
0:5:22.802,602.116,76.6628,0,0.000885,0,0
0:5:25.407,606.342,77.2006,0,0.000885,0,0
0:5:27.991,611.804,77.897,0,0.000885,0,0
0:5:30.596,616.439,78.4899,0,0.000885,0,0
0:5:33.186,621.839,79.1725,0,0.000885,0,0
0:5:35.794,626.71,79.793,0,0.000885,0,0
0:5:38.375,631.643,80.4204,0,0.000885,0,0
0:5:40.983,637.279,81.1375,0,0.000885,0,0
0:5:43.565,641.447,81.6684,0,0.000885,0,0
0:5:46.174,647.256,82.413,0,0.000885,0,0
0:5:48.759,652.305,83.0542,0,0.000885,0,0
0:5:51.369,657.296,83.6886,0,0.000885,0,0
0:5:53.970,662.167,84.3091,0,0.000885,0,0
0:5:56.581,667.918,85.0399,0,0.000885,0,0
0:5:59.173,672.616,85.6398,0,0.000885,0,0
0:6:1.769,677.722,86.2879,0,0.000885,0,0
0:6:4.359,682.944,86.9567,0,0.000885,0,0
0:6:6.953,687.82,87.5772,0,0.000885,0,0
0:6:9.547,693.042,88.2391,0,0.000885,0,0
0:6:12.151,698.264,88.9079,0,0.000885,0,0
0:6:14.774,703.255,89.5422,0,0.000885,0,0
0:6:17.363,708.597,90.2248,0,0.000885,0,0
0:6:19.981,713.704,90.8729,0,0.000885,0,0
0:6:22.563,718.575,91.4934,0,0.000885,0,0
0:6:25.169,723.566,92.1277,0,0.000885,0,0
0:6:27.759,728.85,92.7965,0,0.000885,0,0
0:6:30.364,734.072,93.4653,0,0.000885,0,0
0:6:32.943,739.063,94.0996,0,0.000885,0,0
0:6:35.549,744.285,94.7684,0,0.000885,0,0
0:6:38.131,749.276,95.4028,0,0.000885,0,0
0:6:40.738,754.792,96.106,0,0.000885,0,0
0:6:43.320,759.605,96.7128,0,0.000885,0,0
0:6:45.928,764.654,97.3609,0,0.000885,0,0
0:6:48.513,769.938,98.0297,0,0.000885,0,0
0:6:51.122,774.751,98.6433,0,0.000885,0,0
0:6:53.704,779.506,99.25,0,0.000885,0,0
0:6:56.311,785.142,99.9671,0,0.000885,0,0
0:6:58.897,789.31,100.498,0,0.000885,0,0
0:7:1.496,795.355,101.27,0,0.000885,0,0
0:7:4.090,800.635,101.939,0,0.000885,0,0
0:7:6.686,804.803,102.47,0,0.000885,0,0
0:7:9.277,810.146,103.152,0,0.000885,0,0
0:7:11.876,815.31,103.807,0,0.000885,0,0
0:7:14.464,821.004,104.531,0,0.000885,0,0
0:7:17.067,825.292,105.076,0,0.000885,0,0
0:7:19.669,830.928,105.8,0,0.000885,0,0
0:7:22.282,835.741,106.407,0,0.000885,0,0
0:7:24.893,841.257,107.11,0,0.000885,0,0
0:7:27.476,846.127,107.731,0,0.000885,0,0
0:7:30.079,851.412,108.406,0,0.000885,0,0
0:7:32.680,856.403,109.041,0,0.000885,0,0
0:7:35.286,861.331,109.668,0,0.000885,0,0
0:7:37.876,866.674,110.351,0,0.000885,0,0
0:7:40.482,872.132,111.04,0,0.000885,0,0
0:7:43.060,876.3,111.571,0,0.000885,0,0
0:7:45.667,882.287,112.336,0,0.000885,0,0
0:7:48.265,886.926,112.929,0,0.000885,0,0
0:7:50.870,892.269,113.605,0,0.000885,0,0
0:7:53.482,896.846,114.191,0,0.000885,0,0
0:7:56.086,901.953,114.839,0,0.000885,0,0
0:7:58.673,906.881,115.467,0,0.000885,0,0
0:8:1.279,912.695,116.211,0,0.000885,0,0
0:8:3.884,917.624,116.839,0,0.000885,0,0
0:8:6.483,923.317,117.563,0,0.000885,0,0
0:8:9.093,927.485,118.093,0,0.000885,0,0
0:8:11.689,932.712,118.755,0,0.000885,0,0
0:8:14.291,938.464,119.486,0,0.000885,0,0
0:8:16.887,942.925,120.058,0,0.000885,0,0
0:8:19.496,948.147,120.72,0,0.000885,0,0
0:8:22.090,953.432,121.396,0,0.000885,0,0
0:8:24.692,958.423,122.03,0,0.000885,0,0
0:8:27.286,963.173,122.637,0,0.000885,0,0
0:8:29.894,968.574,123.32,0,0.000885,0,0
0:8:32.487,973.449,123.94,0,0.000885,0,0
0:8:35.101,979.085,124.664,0,0.000885,0,0
0:8:37.684,984.129,125.305,0,0.000885,0,0
0:8:40.295,988.826,125.898,0,0.000885,0,0
0:8:42.884,993.933,126.553,0,0.000885,0,0
0:8:45.501,1000.1,127.339,0,0.000885,0,0
0:8:48.089,1004.21,127.856,0,0.000885,0,0
0:8:50.694,1009.67,128.553,0,0.000885,0,0
0:8:53.293,1015.01,129.235,0,0.000885,0,0
0:8:55.900,1020.17,129.89,0,0.000885,0,0
0:8:58.490,1024.63,130.463,0,0.000885,0,0
0:9:1.094,1029.8,131.118,0,0.000885,0,0
0:9:3.685,1035.08,131.793,0,0.000885,0,0
0:9:6.290,1040.13,132.434,0,0.000885,0,0
0:9:8.888,1044.95,133.048,0,0.000885,0,0
0:9:11.493,1050.23,133.717,0,0.000885,0,0
0:9:14.090,1055.39,134.379,0,0.000885,0,0
0:9:16.695,1060.56,135.034,0,0.000885,0,0
0:9:19.301,1065.9,135.716,0,0.000885,0,0
0:9:21.890,1070.89,136.351,0,0.000885,0,0
0:9:24.508,1075.94,136.992,0,0.000885,0,0
0:9:27.097,1080.34,137.55,0,0.000885,0,0
0:9:29.698,1086.27,138.309,0,0.000885,0,0
0:9:32.299,1091.32,138.95,0,0.000885,0,0
0:9:34.908,1096.54,139.619,0,0.000885,0,0
0:9:37.495,1101.53,140.253,0,0.000885,0,0
0:9:40.106,1106.22,140.846,0,0.000885,0,0
0:9:42.690,1111.45,141.515,0,0.000885,0,0
0:9:45.305,1117.09,142.232,0,0.000885,0,0
0:9:47.895,1121.55,142.797,0,0.000885,0,0
0:9:50.503,1126.89,143.48,0,0.000885,0,0
0:9:53.092,1132.17,144.156,0,0.000885,0,0
0:9:55.698,1137.16,144.79,0,0.000885,0,0
0:9:58.298,1142.09,145.417,0,0.000885,0,0
0:10:0.904,1147.49,146.1,0,0.000885,0,0
0:10:3.492,1152.25,146.707,0,0.000885,0,0
0:10:6.106,1158.12,147.458,0,0.000885,0,0
0:10:8.696,1162.69,148.037,0,0.000885,0,0
0:10:11.302,1167.86,148.699,0,0.000885,0,0
0:10:13.899,1173.02,149.354,0,0.000885,0,0
0:10:16.505,1177.72,149.954,0,0.000885,0,0
0:10:19.082,1182.88,150.609,0,0.000885,0,0
0:10:21.698,1187.7,151.223,0,0.000885,0,0
0:10:24.313,1195.45,152.209,0,0.000885,0,0
0:10:26.899,1197.62,152.484,0,0.000885,0,0
0:10:29.506,1203.37,153.215,0,0.000885,0,0
0:10:32.103,1207.78,153.781,0,0.000885,0,0
0:10:34.709,1211.77,154.284,0,0.000885,0,0
0:10:37.297,1219.87,155.318,0,0.000885,0,0
0:10:39.913,1222.86,155.697,0,0.000885,0,0
0:10:42.073,888.919,113.184,0,0.000885,0,0