File: DataFile2021-07-28_091328.csv
Test ID:,Date Tested:,Time:,Test Type:,Diameter Avg. (mm):,Cyl. Corr. Factor:,Height (mm):,Age (days):,Weight (kN):,Break Type:,Ramp Rate (MPa/s):,Load at Break (kN):,Stress at Break (MPa):
12,7/28/2021,09:13,Cylinder,150,1,300,0,13.69,3,0.35,2203.71,124.71
Sample Time,Load (kN),Stress (MPa),Long. Strain,Trans. Strain,Chan1 Deflection (mm),Chan2 Deflection (mm)
0:0:8.467,5.51135,0.310264,0,0.000885,0,0
0:0:9.958,13.7228,0.779108,0,0.000885,0,0
0:0:11.450,22.2856,1.26174,0,0.000885,0,0
0:0:12.952,29.7942,1.68922,0,0.000885,0,0
0:0:14.465,36.7156,2.07532,0,0.000885,0,0
0:0:15.974,45.8078,2.59243,0,0.000885,0,0
0:0:17.464,57.8313,3.27501,0,0.000885,0,0
0:0:18.967,72.4348,4.09549,0,0.000885,0,0
0:0:20.475,80.9398,4.57812,0,0.000885,0,0
0:0:21.966,88.1504,4.9918,0,0.000885,0,0
0:0:23.460,97.594,5.5227,0,0.000885,0,0
0:0:24.976,108.328,6.12944,0,0.000885,0,0
0:0:26.472,116.655,6.59828,0,0.000885,0,0
0:0:27.966,125.689,7.11539,0,0.000885,0,0
0:0:29.472,134.839,7.6325,0,0.000885,0,0
0:0:30.978,143.989,8.1496,0,0.000885,0,0
0:0:32.469,153.722,8.70118,0,0.000885,0,0
0:0:33.964,162.462,9.19071,0,0.000885,0,0
0:0:35.481,172.845,9.78366,0,0.000885,0,0
0:0:36.972,182.052,10.3008,0,0.000885,0,0
0:0:38.468,190.909,10.8041,0,0.000885,0,0
0:0:39.974,200.468,11.3419,0,0.000885,0,0
0:0:41.458,209.734,11.8659,0,0.000885,0,0
0:0:42.950,218.706,12.3761,0,0.000885,0,0
0:0:44.458,227.798,12.8932,0,0.000885,0,0
0:0:45.950,237.477,13.4379,0,0.000885,0,0
0:0:47.453,246.156,13.9274,0,0.000885,0,0
0:0:48.955,255.541,14.4583,0,0.000885,0,0
0:0:50.459,264.629,14.9754,0,0.000885,0,0
0:0:51.959,273.837,15.4994,0,0.000885,0,0
0:0:53.459,283.926,16.0648,0,0.000885,0,0
0:0:54.966,292.84,16.5681,0,0.000885,0,0
0:0:56.456,302.519,17.1197,0,0.000885,0,0
0:0:57.956,311.611,17.6368,0,0.000885,0,0
0:0:59.466,320.641,18.147,0,0.000885,0,0
0:1:0.959,329.675,18.6572,0,0.000885,0,0
0:1:2.459,338.825,19.1743,0,0.000885,0,0
0:1:3.955,348.62,19.7259,0,0.000885,0,0
0:1:5.461,357.766,20.243,0,0.000885,0,0
0:1:6.959,366.743,20.7532,0,0.000885,0,0
0:1:8.461,375.772,21.2634,0,0.000885,0,0
0:1:9.962,385.567,21.8219,0,0.000885,0,0
0:1:11.460,395.54,22.3804,0,0.000885,0,0
0:1:12.960,404.161,22.8699,0,0.000885,0,0
0:1:14.462,413.311,23.387,0,0.000885,0,0
0:1:15.960,422.87,23.9317,0,0.000885,0,0
0:1:17.454,432.078,24.4488,0,0.000885,0,0
0:1:18.963,441.286,24.9728,0,0.000885,0,0
0:1:20.463,450.142,25.4761,0,0.000885,0,0
0:1:21.956,459.35,25.9932,0,0.000885,0,0
0:1:23.458,469.674,26.5793,0,0.000885,0,0
0:1:24.961,477.944,27.0481,0,0.000885,0,0
0:1:26.460,486.916,27.5515,0,0.000885,0,0
0:1:27.961,497.24,28.1375,0,0.000885,0,0
0:1:29.456,506.799,28.6822,0,0.000885,0,0
0:1:30.961,516.123,29.2062,0,0.000885,0,0
0:1:32.463,524.748,29.6957,0,0.000885,0,0
0:1:33.950,533.778,30.2059,0,0.000885,0,0
0:1:35.461,543.221,30.7368,0,0.000885,0,0
0:1:36.951,552.251,31.2539,0,0.000885,0,0
0:1:38.463,561.815,31.7917,0,0.000885,0,0
0:1:39.965,570.729,32.295,0,0.000885,0,0
0:1:41.453,579.937,32.819,0,0.000885,0,0
0:1:42.958,589.438,33.3568,0,0.000885,0,0
0:1:44.472,599.242,33.9084,0,0.000885,0,0
0:1:45.970,608.045,34.4117,0,0.000885,0,0
0:1:47.460,617.791,34.9564,0,0.000885,0,0
0:1:48.958,626.714,35.4666,0,0.000885,0,0
0:1:50.461,636.456,36.0182,0,0.000885,0,0
0:1:51.961,645.263,36.5146,0,0.000885,0,0
0:1:53.459,654.538,37.0386,0,0.000885,0,0
0:1:54.970,663.341,37.5351,0,0.000885,0,0
0:1:56.466,672.909,38.0797,0,0.000885,0,0
0:1:57.965,681.89,38.59,0,0.000885,0,0
0:1:59.463,691.107,39.1071,0,0.000885,0,0
0:2:0.967,701.436,39.6931,0,0.000885,0,0
0:2:2.453,710.652,40.2171,0,0.000885,0,0
0:2:3.965,719.166,40.6998,0,0.000885,0,0
0:2:5.479,729.731,41.2927,0,0.000885,0,0
0:2:6.968,738.182,41.7753,0,0.000885,0,0
0:2:8.454,746.87,42.2649,0,0.000885,0,0
0:2:9.972,756.616,42.8164,0,0.000885,0,0
0:2:11.468,765.77,43.3335,0,0.000885,0,0
0:2:12.954,774.693,43.8369,0,0.000885,0,0
0:2:14.471,784.382,44.3884,0,0.000885,0,0
0:2:15.968,793.714,44.9124,0,0.000885,0,0
0:2:17.461,802.108,45.3882,0,0.000885,0,0
0:2:18.962,812.494,45.9811,0,0.000885,0,0
0:2:20.472,822.005,46.5189,0,0.000885,0,0
0:2:21.962,830.928,47.0222,0,0.000885,0,0
0:2:23.469,840.612,47.5669,0,0.000885,0,0
0:2:24.975,849.183,48.0565,0,0.000885,0,0
0:2:26.471,858.867,48.6011,0,0.000885,0,0
0:2:27.961,867.203,49.0769,0,0.000885,0,0
0:2:29.466,877.123,49.6354,0,0.000885,0,0
0:2:30.961,886.281,50.1525,0,0.000885,0,0
0:2:32.469,895.556,50.6765,0,0.000885,0,0
0:2:33.966,904.359,51.1798,0,0.000885,0,0
0:2:35.474,914.928,51.7727,0,0.000885,0,0
0:2:36.961,923.553,52.2623,0,0.000885,0,0
0:2:38.461,933.063,52.8001,0,0.000885,0,0
0:2:39.968,941.871,53.2965,0,0.000885,0,0
0:2:41.464,951.67,53.8549,0,0.000885,0,0
0:2:42.963,960.771,54.3652,0,0.000885,0,0
0:2:44.470,969.695,54.8754,0,0.000885,0,0
0:2:45.972,979.2,55.4132,0,0.000885,0,0
0:2:47.458,988.181,55.9165,0,0.000885,0,0
0:2:48.957,997.162,56.4267,0,0.000885,0,0
0:2:50.463,1006.5,56.9576,0,0.000885,0,0
0:2:51.963,1016.48,57.523,0,0.000885,0,0
0:2:53.460,1025.69,58.0401,0,0.000885,0,0
0:2:54.971,1035.03,58.571,0,0.000885,0,0
0:2:56.464,1044.77,59.1225,0,0.000885,0,0
0:2:57.951,1053.4,59.6121,0,0.000885,0,0
0:2:59.472,1062.91,60.1499,0,0.000885,0,0
0:3:0.973,1071.65,60.6463,0,0.000885,0,0
0:3:2.458,1081.16,61.1841,0,0.000885,0,0
0:3:3.968,1090.44,61.7081,0,0.000885,0,0
0:3:5.471,1099.48,62.2183,0,0.000885,0,0
0:3:6.971,1108.58,62.7354,0,0.000885,0,0
0:3:8.470,1119.43,63.349,0,0.000885,0,0
0:3:9.981,1127.54,63.8041,0,0.000885,0,0
0:3:11.474,1136.81,64.3281,0,0.000885,0,0
0:3:12.961,1146.14,64.859,0,0.000885,0,0
0:3:14.474,1155.95,65.4106,0,0.000885,0,0
0:3:15.976,1164.51,65.9001,0,0.000885,0,0
0:3:17.472,1173.61,66.4103,0,0.000885,0,0
0:3:18.960,1183.24,66.955,0,0.000885,0,0
0:3:20.476,1192.4,67.479,0,0.000885,0,0
0:3:21.962,1201.85,68.0099,0,0.000885,0,0
0:3:23.471,1210.71,68.5132,0,0.000885,0,0
0:3:24.983,1220.81,69.0855,0,0.000885,0,0
0:3:26.474,1230.02,69.6026,0,0.000885,0,0
0:3:27.961,1238.95,70.1128,0,0.000885,0,0
0:3:29.462,1248.22,70.6368,0,0.000885,0,0
0:3:30.964,1257.32,71.147,0,0.000885,0,0
0:3:32.461,1266.53,71.671,0,0.000885,0,0
0:3:33.961,1276.28,72.2226,0,0.000885,0,0
0:3:35.476,1285.26,72.7328,0,0.000885,0,0
0:3:36.962,1294.53,73.2568,0,0.000885,0,0
0:3:38.469,1304.4,73.8153,0,0.000885,0,0
0:3:39.982,1313.08,74.3048,0,0.000885,0,0
0:3:41.472,1323.24,74.8771,0,0.000885,0,0
0:3:42.970,1331.87,75.3666,0,0.000885,0,0
0:3:44.480,1341.2,75.8975,0,0.000885,0,0
0:3:45.978,1350.77,76.4353,0,0.000885,0,0
0:3:47.465,1359.4,76.9248,0,0.000885,0,0
0:3:48.971,1368.44,77.435,0,0.000885,0,0
0:3:50.481,1378.12,77.9866,0,0.000885,0,0
0:3:51.973,1387.34,78.5106,0,0.000885,0,0
0:3:53.471,1396.55,79.0277,0,0.000885,0,0
0:3:54.981,1405.89,79.5586,0,0.000885,0,0
0:3:56.478,1413.87,80.0068,0,0.000885,0,0
0:3:57.966,1424.85,80.6273,0,0.000885,0,0
0:3:59.476,1434.12,81.1513,0,0.000885,0,0
0:4:0.980,1443.51,81.6891,0,0.000885,0,0
0:4:2.470,1452.55,82.1993,0,0.000885,0,0
0:4:3.956,1462.06,82.7371,0,0.000885,0,0
0:4:5.471,1471.28,83.2542,0,0.000885,0,0
0:4:6.971,1479.68,83.7299,0,0.000885,0,0
0:4:8.459,1489.22,84.2746,0,0.000885,0,0
0:4:9.972,1498.46,84.7986,0,0.000885,0,0
0:4:11.471,1507.77,85.3226,0,0.000885,0,0
0:4:12.973,1516.95,85.8397,0,0.000885,0,0
0:4:14.478,1527.08,86.412,0,0.000885,0,0
0:4:15.975,1535.98,86.9153,0,0.000885,0,0
0:4:17.473,1545.22,87.4393,0,0.000885,0,0
0:4:18.965,1554.7,87.9771,0,0.000885,0,0
0:4:20.478,1563.94,88.5011,0,0.000885,0,0
0:4:21.977,1573.07,89.0182,0,0.000885,0,0
0:4:23.466,1582.43,89.5491,0,0.000885,0,0
0:4:24.985,1591.62,90.0662,0,0.000885,0,0
0:4:26.480,1600.39,90.5626,0,0.000885,0,0
0:4:27.980,1609.93,91.1004,0,0.000885,0,0
0:4:29.476,1619.12,91.6244,0,0.000885,0,0
0:4:30.981,1628.36,92.1484,0,0.000885,0,0
0:4:32.469,1637.49,92.6655,0,0.000885,0,0
0:4:33.966,1647.38,93.224,0,0.000885,0,0
0:4:35.480,1656.62,93.748,0,0.000885,0,0
0:4:36.980,1665.87,94.272,0,0.000885,0,0
0:4:38.465,1675.7,94.8236,0,0.000885,0,0
0:4:39.981,1684.18,95.3062,0,0.000885,0,0
0:4:41.478,1693.78,95.8509,0,0.000885,0,0
0:4:42.967,1702.67,96.3542,0,0.000885,0,0
0:4:44.472,1711.86,96.8713,0,0.000885,0,0
0:4:45.968,1721.22,97.4022,0,0.000885,0,0
0:4:47.478,1730.58,97.9331,0,0.000885,0,0
0:4:48.970,1739.89,98.4571,0,0.000885,0,0
0:4:50.482,1749.49,99.0018,0,0.000885,0,0
0:4:51.971,1759.14,99.5465,0,0.000885,0,0
0:4:53.461,1767.97,100.05,0,0.000885,0,0
0:4:54.976,1776.92,100.553,0,0.000885,0,0
0:4:56.482,1786.58,101.098,0,0.000885,0,0
0:4:57.967,1795.76,101.622,0,0.000885,0,0
0:4:59.474,1804.6,102.118,0,0.000885,0,0
0:5:0.981,1814.49,102.677,0,0.000885,0,0
0:5:2.466,1823.38,103.18,0,0.000885,0,0
0:5:3.972,1832.57,103.704,0,0.000885,0,0
0:5:5.482,1842.64,104.269,0,0.000885,0,0
0:5:6.972,1851.71,104.787,0,0.000885,0,0
0:5:8.460,1860.89,105.304,0,0.000885,0,0
0:5:9.969,1870.43,105.841,0,0.000885,0,0
0:5:11.465,1879.5,106.359,0,0.000885,0,0
0:5:12.962,1888.63,106.876,0,0.000885,0,0
0:5:14.469,1897.51,107.379,0,0.000885,0,0
0:5:15.973,1907.05,107.917,0,0.000885,0,0
0:5:17.482,1916.36,108.441,0,0.000885,0,0
0:5:18.979,1925.31,108.951,0,0.000885,0,0
0:5:20.483,1935.08,109.503,0,0.000885,0,0
0:5:21.972,1944.74,110.047,0,0.000885,0,0
0:5:23.461,1953.34,110.537,0,0.000885,0,0
0:5:24.971,1963.05,111.088,0,0.000885,0,0
0:5:26.476,1971.71,111.578,0,0.000885,0,0
0:5:27.974,1981.37,112.123,0,0.000885,0,0
0:5:29.485,1990.49,112.64,0,0.000885,0,0
0:5:30.988,1999.38,113.143,0,0.000885,0,0
0:5:32.475,2009.28,113.701,0,0.000885,0,0
0:5:33.995,2017.75,114.184,0,0.000885,0,0
0:5:35.497,2027.94,114.756,0,0.000885,0,0
0:5:36.986,2036.65,115.253,0,0.000885,0,0
0:5:38.473,2047.08,115.839,0,0.000885,0,0
0:5:39.987,2055.85,116.335,0,0.000885,0,0
0:5:41.480,2065.51,116.887,0,0.000885,0,0
0:5:42.971,2074.28,117.383,0,0.000885,0,0
0:5:44.481,2083.64,117.907,0,0.000885,0,0
0:5:45.985,2092.83,118.431,0,0.000885,0,0
0:5:47.473,2102.31,118.969,0,0.000885,0,0
0:5:48.960,2111.38,119.479,0,0.000885,0,0
0:5:50.472,2119.92,119.962,0,0.000885,0,0
0:5:51.972,2128.63,120.458,0,0.000885,0,0
0:5:53.470,2138.99,121.044,0,0.000885,0,0
0:5:54.984,2148.36,121.575,0,0.000885,0,0
0:5:56.484,2158.43,122.141,0,0.000885,0,0
0:5:57.972,2166.55,122.603,0,0.000885,0,0
0:5:59.473,2175.86,123.127,0,0.000885,0,0
0:6:0.982,2181.1,123.423,0,0.000885,0,0
0:6:2.469,2190.28,123.947,0,0.000885,0,0
0:6:3.968,2201.12,124.561,0,0.000885,0,0
0:6:4.989,2194.34,124.175,0,0.000885,0,0