File: DataFile2021-06-30_063644.csv
Test ID:,Date Tested:,Time:,Test Type:,Diameter Avg. (mm):,Cyl. Corr. Factor:,Height (mm):,Age (days):,Weight (kN):,Break Type:,Ramp Rate (MPa/s):,Load at Break (kN):,Stress at Break (MPa):
12,6/30/2021,06:36,Cylinder,100,1,200,0,3.6,4,0.24,470.32,59.88
Sample Time,Load (kN),Stress (MPa),Long. Strain,Trans. Strain,Chan1 Deflection (mm),Chan2 Deflection (mm)
0:0:18.538,6.86361,0.875634,0,0.000885,0,0
0:0:19.641,13.9007,1.77195,0,0.000885,0,0
0:0:20.733,13.0778,1.66853,0,0.000885,0,0
0:0:21.828,12.8465,1.63406,0,0.000885,0,0
0:0:22.937,13.6071,1.73058,0,0.000885,0,0
0:0:24.036,14.8393,1.88916,0,0.000885,0,0
0:0:25.147,17.8863,2.27527,0,0.000885,0,0
0:0:26.246,20.88,2.66138,0,0.000885,0,0
0:0:27.340,22.9929,2.93027,0,0.000885,0,0
0:0:28.433,24.5141,3.12333,0,0.000885,0,0
0:0:29.541,26.9206,3.42669,0,0.000885,0,0
0:0:30.645,29.2648,3.72317,0,0.000885,0,0
0:0:31.741,31.1998,3.97138,0,0.000885,0,0
0:0:32.836,33.7842,4.30233,0,0.000885,0,0
0:0:33.929,35.8927,4.57122,0,0.000885,0,0
0:0:35.045,37.4184,4.76428,0,0.000885,0,0
0:0:36.141,39.3534,5.01249,0,0.000885,0,0
0:0:37.235,41.8177,5.32275,0,0.000885,0,0
0:0:38.340,43.6949,5.56407,0,0.000885,0,0
0:0:39.445,46.7464,5.95018,0,0.000885,0,0
0:0:40.552,48.0363,6.11565,0,0.000885,0,0
0:0:41.646,50.732,6.46039,0,0.000885,0,0
0:0:42.741,53.0184,6.74997,0,0.000885,0,0
0:0:43.831,54.8955,6.99128,0,0.000885,0,0
0:0:44.947,57.302,7.29465,0,0.000885,0,0
0:0:46.046,59.5884,7.58423,0,0.000885,0,0
0:0:47.144,61.2298,7.79797,0,0.000885,0,0
0:0:48.241,63.6363,8.10134,0,0.000885,0,0
0:0:49.345,65.807,8.37713,0,0.000885,0,0
0:0:50.452,67.6841,8.61845,0,0.000885,0,0
0:0:51.542,69.8549,8.89424,0,0.000885,0,0
0:0:52.637,71.6697,9.12866,0,0.000885,0,0
0:0:53.730,74.2497,9.45271,0,0.000885,0,0
0:0:54.845,76.6562,9.76298,0,0.000885,0,0
0:0:55.946,78.4177,9.98361,0,0.000885,0,0
0:0:57.040,81.1711,10.3352,0,0.000885,0,0
0:0:58.141,83.1061,10.5835,0,0.000885,0,0
0:0:59.239,84.9254,10.811,0,0.000885,0,0
0:1:0.350,87.5054,11.1419,0,0.000885,0,0
0:1:1.443,89.8541,11.4384,0,0.000885,0,0
0:1:2.539,91.3754,11.6315,0,0.000885,0,0
0:1:3.631,93.8975,11.9555,0,0.000885,0,0
0:1:4.749,96.0104,12.2244,0,0.000885,0,0
0:1:5.854,98.2968,12.514,0,0.000885,0,0
0:1:6.947,99.8804,12.7139,0,0.000885,0,0
0:1:8.041,102.46,13.0449,0,0.000885,0,0
0:1:9.147,104.689,13.3276,0,0.000885,0,0
0:1:10.257,106.86,13.6034,0,0.000885,0,0
0:1:11.352,108.443,13.8102,0,0.000885,0,0
0:1:12.447,110.908,14.1205,0,0.000885,0,0
0:1:13.541,113.43,14.4445,0,0.000885,0,0
0:1:14.651,115.716,14.7341,0,0.000885,0,0
0:1:15.752,117.829,15.003,0,0.000885,0,0
0:1:16.846,119.822,15.2581,0,0.000885,0,0
0:1:17.941,121.405,15.458,0,0.000885,0,0
0:1:19.033,123.985,15.789,0,0.000885,0,0
0:1:20.146,125.102,15.9269,0,0.000885,0,0
0:1:21.249,128.972,16.4233,0,0.000885,0,0
0:1:22.341,130.675,16.637,0,0.000885,0,0
0:1:23.444,132.904,16.9197,0,0.000885,0,0
0:1:24.556,134.719,17.1542,0,0.000885,0,0
0:1:25.658,136.947,17.4368,0,0.000885,0,0
0:1:26.754,138.825,17.6782,0,0.000885,0,0
0:1:27.848,141.289,17.9884,0,0.000885,0,0
0:1:28.944,143.108,18.2228,0,0.000885,0,0
0:1:30.057,145.688,18.5469,0,0.000885,0,0
0:1:31.153,148.152,18.8641,0,0.000885,0,0
0:1:32.248,150.203,19.1261,0,0.000885,0,0
0:1:33.341,152.022,19.3536,0,0.000885,0,0
0:1:34.453,154.718,19.6983,0,0.000885,0,0
0:1:35.566,156.302,19.8983,0,0.000885,0,0
0:1:36.662,158.944,20.2361,0,0.000885,0,0
0:1:37.754,160.643,20.4567,0,0.000885,0,0
0:1:38.848,163.165,20.7739,0,0.000885,0,0
0:1:39.960,165.22,21.0359,0,0.000885,0,0
0:1:41.062,166.804,21.2359,0,0.000885,0,0
0:1:42.158,169.09,21.5323,0,0.000885,0,0
0:1:43.252,170.967,21.7667,0,0.000885,0,0
0:1:44.359,173.605,22.1046,0,0.000885,0,0
0:1:45.464,175.834,22.3873,0,0.000885,0,0
0:1:46.557,178.062,22.67,0,0.000885,0,0
0:1:47.652,180.055,22.9251,0,0.000885,0,0
0:1:48.746,182.991,23.2974,0,0.000885,0,0
0:1:49.857,184.984,23.5525,0,0.000885,0,0
0:1:50.960,186.389,23.7318,0,0.000885,0,0
0:1:52.052,188.387,23.9869,0,0.000885,0,0
0:1:53.145,191.202,24.3454,0,0.000885,0,0
0:1:54.243,193.369,24.6212,0,0.000885,0,0
0:1:55.346,195.597,24.9039,0,0.000885,0,0
0:1:56.445,197.359,25.1314,0,0.000885,0,0
0:1:57.539,199.414,25.3865,0,0.000885,0,0
0:1:58.632,202.109,25.7312,0,0.000885,0,0
0:1:59.731,204.164,25.9932,0,0.000885,0,0
0:2:0.826,206.273,26.2621,0,0.000885,0,0
0:2:1.932,208.559,26.5517,0,0.000885,0,0
0:2:3.036,210.143,26.7586,0,0.000885,0,0
0:2:4.134,212.198,27.0206,0,0.000885,0,0
0:2:5.238,214.6,27.3239,0,0.000885,0,0
0:2:6.330,216.891,27.6135,0,0.000885,0,0
0:2:7.435,218.884,27.8686,0,0.000885,0,0
0:2:8.532,221.29,28.172,0,0.000885,0,0
0:2:9.632,223.812,28.496,0,0.000885,0,0
0:2:10.733,224.809,28.6201,0,0.000885,0,0
0:2:11.847,227.918,29.02,0,0.000885,0,0
0:2:12.930,230.262,29.3165,0,0.000885,0,0
0:2:14.026,232.197,29.5647,0,0.000885,0,0
0:2:15.126,233.839,29.7716,0,0.000885,0,0
0:2:16.215,236.481,30.1094,0,0.000885,0,0
0:2:17.302,238.709,30.3921,0,0.000885,0,0
0:2:18.389,240.466,30.6196,0,0.000885,0,0
0:2:19.487,242.579,30.8885,0,0.000885,0,0
0:2:20.580,244.279,31.1023,0,0.000885,0,0
0:2:21.664,246.391,31.3711,0,0.000885,0,0
0:2:22.751,248.856,31.6883,0,0.000885,0,0
0:2:23.850,251.2,31.9848,0,0.000885,0,0
0:2:24.955,254.425,32.3916,0,0.000885,0,0
0:2:26.047,255.541,32.5364,0,0.000885,0,0
0:2:27.141,257.712,32.8121,0,0.000885,0,0
0:2:28.229,259.821,33.081,0,0.000885,0,0
0:2:29.337,262.343,33.4051,0,0.000885,0,0
0:2:30.430,263.984,33.6119,0,0.000885,0,0
0:2:31.515,266.569,33.9429,0,0.000885,0,0
0:2:32.600,268.561,34.1911,0,0.000885,0,0
0:2:33.688,270.439,34.4324,0,0.000885,0,0
0:2:34.795,272.547,34.7013,0,0.000885,0,0
0:2:35.889,274.66,34.9702,0,0.000885,0,0
0:2:36.975,276.595,35.2184,0,0.000885,0,0
0:2:38.060,279.646,35.6045,0,0.000885,0,0
0:2:39.149,281.466,35.8389,0,0.000885,0,0
0:2:40.254,283.81,36.1354,0,0.000885,0,0
0:2:41.350,285.451,36.3423,0,0.000885,0,0
0:2:42.447,287.916,36.6594,0,0.000885,0,0
0:2:43.554,289.673,36.8801,0,0.000885,0,0
0:2:44.658,291.963,37.1765,0,0.000885,0,0
0:2:45.750,294.014,37.4385,0,0.000885,0,0
0:2:46.842,296.3,37.7281,0,0.000885,0,0
0:2:47.937,298.591,38.0177,0,0.000885,0,0
0:2:49.033,301.113,38.3417,0,0.000885,0,0
0:2:50.135,302.928,38.5693,0,0.000885,0,0
0:2:51.234,305.157,38.852,0,0.000885,0,0
0:2:52.339,307.212,39.114,0,0.000885,0,0
0:2:53.433,309.031,39.3484,0,0.000885,0,0
0:2:54.534,311.14,39.6173,0,0.000885,0,0
0:2:55.629,313.31,39.8931,0,0.000885,0,0
0:2:56.734,315.833,40.2102,0,0.000885,0,0
0:2:57.833,318.297,40.5274,0,0.000885,0,0
0:2:58.921,319.645,40.6998,0,0.000885,0,0
0:3:0.026,322.403,41.0514,0,0.000885,0,0
0:3:1.116,324.511,41.3203,0,0.000885,0,0
0:3:2.200,326.273,41.5409,0,0.000885,0,0
0:3:3.287,328.973,41.8857,0,0.000885,0,0
0:3:4.393,330.73,42.1132,0,0.000885,0,0
0:3:5.489,333.31,42.4372,0,0.000885,0,0
0:3:6.573,334.6,42.6027,0,0.000885,0,0
0:3:7.658,337.064,42.913,0,0.000885,0,0
0:3:8.752,339.408,43.2163,0,0.000885,0,0
0:3:9.855,341.641,43.499,0,0.000885,0,0
0:3:10.954,343.807,43.7748,0,0.000885,0,0
0:3:12.039,345.92,44.0437,0,0.000885,0,0
0:3:13.136,348.265,44.3402,0,0.000885,0,0
0:3:14.236,350.378,44.6091,0,0.000885,0,0
0:3:15.350,352.255,44.8504,0,0.000885,0,0
0:3:16.444,354.074,45.0848,0,0.000885,0,0
0:3:17.532,356.712,45.4158,0,0.000885,0,0
0:3:18.638,358.883,45.6916,0,0.000885,0,0
0:3:19.742,360.875,45.9467,0,0.000885,0,0
0:3:20.844,363.224,46.25,0,0.000885,0,0
0:3:21.929,364.923,46.4638,0,0.000885,0,0
0:3:23.013,367.445,46.7878,0,0.000885,0,0
0:3:24.114,369.265,47.0153,0,0.000885,0,0
0:3:25.208,371.493,47.298,0,0.000885,0,0
0:3:26.295,373.78,47.5945,0,0.000885,0,0
0:3:27.383,375.95,47.8703,0,0.000885,0,0
0:3:28.468,377.707,48.0909,0,0.000885,0,0
0:3:29.574,380.056,48.3874,0,0.000885,0,0
0:3:30.663,382.52,48.7046,0,0.000885,0,0
0:3:31.757,384.398,48.9459,0,0.000885,0,0
0:3:32.841,386.857,49.2561,0,0.000885,0,0
0:3:33.945,389.206,49.5526,0,0.000885,0,0
0:3:35.044,391.315,49.8215,0,0.000885,0,0
0:3:36.140,392.489,49.9732,0,0.000885,0,0
0:3:37.237,395.189,50.3179,0,0.000885,0,0
0:3:38.340,397.711,50.6351,0,0.000885,0,0
0:3:39.449,399.877,50.9109,0,0.000885,0,0
0:3:40.542,401.523,51.1246,0,0.000885,0,0
0:3:41.638,404.397,51.49,0,0.000885,0,0
0:3:42.747,406.332,51.7383,0,0.000885,0,0
0:3:43.844,408.147,51.9658,0,0.000885,0,0
0:3:44.945,410.317,52.2416,0,0.000885,0,0
0:3:46.042,412.372,52.5036,0,0.000885,0,0
0:3:47.128,414.952,52.8345,0,0.000885,0,0
0:3:48.213,416.945,53.0896,0,0.000885,0,0
0:3:49.315,419.294,53.3861,0,0.000885,0,0
0:3:50.408,421.287,53.6412,0,0.000885,0,0
0:3:51.498,423.515,53.9239,0,0.000885,0,0
0:3:52.585,425.214,54.1376,0,0.000885,0,0
0:3:53.674,427.621,54.4479,0,0.000885,0,0
0:3:54.780,429.498,54.6823,0,0.000885,0,0
0:3:55.871,431.842,54.9857,0,0.000885,0,0
0:3:56.956,434.249,55.2891,0,0.000885,0,0
0:3:58.050,436.242,55.5442,0,0.000885,0,0
0:3:59.158,438.234,55.7993,0,0.000885,0,0
0:4:0.249,440.289,56.0613,0,0.000885,0,0
0:4:1.348,442.518,56.344,0,0.000885,0,0
0:4:2.444,444.453,56.5922,0,0.000885,0,0
0:4:3.542,447.033,56.9162,0,0.000885,0,0
0:4:4.647,448.968,57.1644,0,0.000885,0,0
0:4:5.755,451.374,57.4678,0,0.000885,0,0
0:4:6.861,453.367,57.7229,0,0.000885,0,0
0:4:7.946,455.302,57.9711,0,0.000885,0,0
0:4:9.056,457.593,58.2607,0,0.000885,0,0
0:4:10.157,459.408,58.4951,0,0.000885,0,0
0:4:11.242,460.76,58.6675,0,0.000885,0,0
0:4:12.325,461.699,58.7847,0,0.000885,0,0
0:4:13.414,458.411,58.3641,0,0.000885,0,0
0:4:14.515,463.514,59.0191,0,0.000885,0,0
0:4:15.605,468.678,59.6741,0,0.000885,0,0
0:4:16.692,468.149,59.6052,0,0.000885,0,0
0:4:17.778,453.136,57.6953,0,0.000885,0,0
0:4:18.869,457.531,58.2538,0,0.000885,0,0
0:4:19.966,442.282,56.3164,0,0.000885,0,0
0:4:21.047,435.832,55.489,0,0.000885,0,0
0:4:22.131,439.173,55.9165,0,0.000885,0,0
0:4:22.346,365.101,46.4845,0,0.000885,0,0