File: DataFile2021-06-08_054613.csv
Test ID:,Date Tested:,Time:,Test Type:,Diameter Avg. (mm):,Cyl. Corr. Factor:,Height (mm):,Age (days):,Weight (kN):,Break Type:,Ramp Rate (MPa/s):,Load at Break (kN):,Stress at Break (MPa):
12,6/8/2021,05:46,Cylinder,150,1,300,0,3.6,5,0.24,759.13,42.96
Sample Time,Load (kN),Stress (MPa),Long. Strain,Trans. Strain,Chan1 Deflection (mm),Chan2 Deflection (mm)
0:0:14.327,13.4292,0.758423,0,0.000885,0,0
0:0:15.119,20.7643,1.17211,0,0.000885,0,0
0:0:15.916,19.9992,1.13074,0,0.000885,0,0
0:0:16.715,19.4699,1.10316,0,0.000885,0,0
0:0:17.511,19.412,1.09627,0,0.000885,0,0
0:0:18.314,21.8185,1.23416,0,0.000885,0,0
0:0:19.108,26.0977,1.47548,0,0.000885,0,0
0:0:19.925,29.7364,1.68232,0,0.000885,0,0
0:0:20.734,33.3706,1.88916,0,0.000885,0,0
0:0:21.537,37.1249,2.1029,0,0.000885,0,0
0:0:22.330,40.7635,2.30974,0,0.000885,0,0
0:0:23.130,44.0463,2.4959,0,0.000885,0,0
0:0:23.922,47.1556,2.66827,0,0.000885,0,0
0:0:24.723,51.7284,2.93027,0,0.000885,0,0
0:0:25.534,54.7798,3.10264,0,0.000885,0,0
0:0:26.339,58.414,3.30259,0,0.000885,0,0
0:0:27.136,61.7013,3.48875,0,0.000885,0,0
0:0:27.932,65.9805,3.73696,0,0.000885,0,0
0:0:28.731,68.6805,3.88864,0,0.000885,0,0
0:0:29.524,71.9055,4.06791,0,0.000885,0,0
0:0:30.335,76.069,4.30233,0,0.000885,0,0
0:0:31.143,79.294,4.48849,0,0.000885,0,0
0:0:31.942,83.4575,4.72291,0,0.000885,0,0
0:0:32.736,86.2733,4.88149,0,0.000885,0,0
0:0:33.533,89.9697,5.08833,0,0.000885,0,0
0:0:34.331,93.8397,5.30896,0,0.000885,0,0
0:0:35.131,97.0646,5.49512,0,0.000885,0,0
0:0:35.943,100.525,5.68817,0,0.000885,0,0
0:0:36.743,104.222,5.89502,0,0.000885,0,0
0:0:37.543,108.15,6.12254,0,0.000885,0,0
0:0:38.336,111.846,6.32939,0,0.000885,0,0
0:0:39.134,114.31,6.46728,0,0.000885,0,0
0:0:39.939,118.532,6.7086,0,0.000885,0,0
0:0:40.747,122.108,6.90855,0,0.000885,0,0
0:0:41.549,125.511,7.1016,0,0.000885,0,0
0:0:42.343,128.269,7.26018,0,0.000885,0,0
0:0:43.143,132.375,7.48771,0,0.000885,0,0
0:0:43.937,136.36,7.71523,0,0.000885,0,0
0:0:44.739,139.705,7.90829,0,0.000885,0,0
0:0:45.550,142.815,8.08066,0,0.000885,0,0
0:0:46.354,146.8,8.30818,0,0.000885,0,0
0:0:47.151,150.261,8.50124,0,0.000885,0,0
0:0:47.948,154.309,8.72876,0,0.000885,0,0
0:0:48.745,157.654,8.92182,0,0.000885,0,0
0:0:49.537,159.825,9.04592,0,0.000885,0,0
0:0:50.349,164.455,9.30792,0,0.000885,0,0
0:0:51.157,167.916,9.50098,0,0.000885,0,0
0:0:51.956,171.377,9.70092,0,0.000885,0,0
0:0:52.750,174.837,9.89398,0,0.000885,0,0
0:0:53.548,178.178,10.0801,0,0.000885,0,0
0:0:54.345,181.995,10.3008,0,0.000885,0,0
0:0:55.144,185.922,10.5214,0,0.000885,0,0
0:0:55.955,189.089,10.7007,0,0.000885,0,0
0:0:56.755,192.959,10.9213,0,0.000885,0,0
0:0:57.550,196.362,11.1143,0,0.000885,0,0
0:0:58.336,199.12,11.266,0,0.000885,0,0
0:0:59.130,202.581,11.466,0,0.000885,0,0
0:0:59.929,206.099,11.6659,0,0.000885,0,0
0:1:0.731,210.205,11.8935,0,0.000885,0,0
0:1:1.526,214.484,12.1348,0,0.000885,0,0
0:1:2.316,217.478,12.3071,0,0.000885,0,0
0:1:3.118,220.645,12.4864,0,0.000885,0,0
0:1:3.916,224.457,12.7001,0,0.000885,0,0
0:1:4.709,228.327,12.9208,0,0.000885,0,0
0:1:5.516,231.143,13.0794,0,0.000885,0,0
0:1:6.316,234.368,13.2655,0,0.000885,0,0
0:1:7.112,238.064,13.4724,0,0.000885,0,0
0:1:7.915,241.876,13.6861,0,0.000885,0,0
0:1:8.701,245.804,13.9067,0,0.000885,0,0
0:1:9.503,249.029,14.0929,0,0.000885,0,0
0:1:10.313,252.316,14.279,0,0.000885,0,0
0:1:11.115,255.893,14.479,0,0.000885,0,0
0:1:11.909,259.233,14.672,0,0.000885,0,0
0:1:12.706,263.691,14.9203,0,0.000885,0,0
0:1:13.513,267.036,15.1133,0,0.000885,0,0
0:1:14.298,270.848,15.327,0,0.000885,0,0
0:1:15.104,273.254,15.4649,0,0.000885,0,0
0:1:15.906,276.537,15.6511,0,0.000885,0,0
0:1:16.698,280.585,15.8786,0,0.000885,0,0
0:1:17.498,284.339,16.0924,0,0.000885,0,0
0:1:18.289,288.209,16.3061,0,0.000885,0,0
0:1:19.081,291.728,16.506,0,0.000885,0,0
0:1:19.877,295.188,16.706,0,0.000885,0,0
0:1:20.682,298.24,16.8784,0,0.000885,0,0
0:1:21.475,301.932,17.0852,0,0.000885,0,0
0:1:22.269,305.157,17.2714,0,0.000885,0,0
0:1:23.055,308.675,17.4644,0,0.000885,0,0
0:1:23.850,311.905,17.6506,0,0.000885,0,0
0:1:24.638,315.717,17.8643,0,0.000885,0,0
0:1:25.443,319.881,18.0987,0,0.000885,0,0
0:1:26.245,323.399,18.2987,0,0.000885,0,0
0:1:27.037,326.744,18.4917,0,0.000885,0,0
0:1:27.828,330.378,18.6986,0,0.000885,0,0
0:1:28.616,333.074,18.8503,0,0.000885,0,0
0:1:29.409,337.536,19.0985,0,0.000885,0,0
0:1:30.215,340.934,19.2915,0,0.000885,0,0
0:1:31.017,343.985,19.4639,0,0.000885,0,0
0:1:31.816,347.562,19.6707,0,0.000885,0,0
0:1:32.618,350.907,19.8569,0,0.000885,0,0
0:1:33.406,355.128,20.0982,0,0.000885,0,0
0:1:34.206,358.18,20.2706,0,0.000885,0,0
0:1:35.009,361.872,20.4774,0,0.000885,0,0
0:1:35.810,365.862,20.705,0,0.000885,0,0
0:1:36.606,368.5,20.8497,0,0.000885,0,0
0:1:37.393,372.432,21.0773,0,0.000885,0,0
0:1:38.186,375.95,21.2772,0,0.000885,0,0
0:1:38.978,379.291,21.4634,0,0.000885,0,0
0:1:39.773,383.223,21.684,0,0.000885,0,0
0:1:40.577,386.857,21.8909,0,0.000885,0,0
0:1:41.373,389.5,22.0425,0,0.000885,0,0
0:1:42.166,393.249,22.2563,0,0.000885,0,0
0:1:42.955,396.417,22.4355,0,0.000885,0,0
0:1:43.745,400.055,22.6355,0,0.000885,0,0
0:1:44.537,403.574,22.8354,0,0.000885,0,0
0:1:45.342,407.328,23.0492,0,0.000885,0,0
0:1:46.143,410.847,23.2491,0,0.000885,0,0
0:1:46.932,414.423,23.4491,0,0.000885,0,0
0:1:47.728,417.884,23.649,0,0.000885,0,0
0:1:48.525,421.638,23.8628,0,0.000885,0,0
0:1:49.319,425.214,24.0627,0,0.000885,0,0
0:1:50.128,428.675,24.2558,0,0.000885,0,0
0:1:50.930,431.727,24.4281,0,0.000885,0,0
0:1:51.726,435.539,24.6488,0,0.000885,0,0
0:1:52.523,438.47,24.8142,0,0.000885,0,0
0:1:53.318,442.46,25.0349,0,0.000885,0,0
0:1:54.112,446.624,25.2762,0,0.000885,0,0
0:1:54.921,449.849,25.4554,0,0.000885,0,0
0:1:55.724,453.781,25.6761,0,0.000885,0,0
0:1:56.513,456.654,25.8416,0,0.000885,0,0
0:1:57.327,460.231,26.0415,0,0.000885,0,0
0:1:58.125,463.282,26.2139,0,0.000885,0,0
0:1:58.918,467.326,26.4483,0,0.000885,0,0
0:1:59.724,470.555,26.6276,0,0.000885,0,0
0:2:0.528,474.305,26.8413,0,0.000885,0,0
0:2:1.323,477.356,27.0137,0,0.000885,0,0
0:2:2.114,481.404,27.2412,0,0.000885,0,0
0:2:2.911,485.096,27.448,0,0.000885,0,0
0:2:3.712,488.735,27.6549,0,0.000885,0,0
0:2:4.524,492.369,27.8617,0,0.000885,0,0
0:2:5.328,495.127,28.0203,0,0.000885,0,0
0:2:6.132,498.939,28.234,0,0.000885,0,0
0:2:6.921,503.161,28.4753,0,0.000885,0,0
0:2:7.725,506.212,28.6477,0,0.000885,0,0
0:2:8.511,509.731,28.8477,0,0.000885,0,0
0:2:9.304,513.133,29.0407,0,0.000885,0,0
0:2:10.109,516.83,29.2476,0,0.000885,0,0
0:2:10.909,519.877,29.4199,0,0.000885,0,0
0:2:11.710,523.809,29.6406,0,0.000885,0,0
0:2:12.520,527.559,29.8543,0,0.000885,0,0
0:2:13.312,531.02,30.0474,0,0.000885,0,0
0:2:14.109,534.423,30.2404,0,0.000885,0,0
0:2:14.912,538.471,30.4679,0,0.000885,0,0
0:2:15.716,541.696,30.6541,0,0.000885,0,0
0:2:16.509,544.978,30.8402,0,0.000885,0,0
0:2:17.297,548.266,31.0264,0,0.000885,0,0
0:2:18.090,552.078,31.2401,0,0.000885,0,0
0:2:18.879,555.418,31.4332,0,0.000885,0,0
0:2:19.675,559.115,31.64,0,0.000885,0,0
0:2:20.482,562.811,31.8469,0,0.000885,0,0
0:2:21.278,566.272,32.0468,0,0.000885,0,0
0:2:22.069,569.377,32.2192,0,0.000885,0,0
0:2:22.857,573.015,32.426,0,0.000885,0,0
0:2:23.651,576.298,32.6122,0,0.000885,0,0
0:2:24.438,580.053,32.8259,0,0.000885,0,0
0:2:25.245,583.513,33.019,0,0.000885,0,0
0:2:26.047,587.503,33.2465,0,0.000885,0,0
0:2:26.840,590.319,33.4051,0,0.000885,0,0
0:2:27.630,594.367,33.6326,0,0.000885,0,0
0:2:28.424,597.24,33.7981,0,0.000885,0,0
0:2:29.218,601.173,34.0187,0,0.000885,0,0
0:2:30.029,604.224,34.1911,0,0.000885,0,0
0:2:30.835,607.805,34.3979,0,0.000885,0,0
0:2:31.626,612.151,34.6393,0,0.000885,0,0
0:2:32.421,615.554,34.8323,0,0.000885,0,0
0:2:33.227,618.725,35.0116,0,0.000885,0,0
0:2:34.017,622.128,35.2046,0,0.000885,0,0
0:2:34.828,626.061,35.4253,0,0.000885,0,0
0:2:35.633,629.583,35.6252,0,0.000885,0,0
0:2:36.429,633.106,35.8252,0,0.000885,0,0
0:2:37.222,636.629,36.0251,0,0.000885,0,0
0:2:38.015,639.387,36.1837,0,0.000885,0,0
0:2:38.810,643.729,36.425,0,0.000885,0,0
0:2:39.609,647.194,36.625,0,0.000885,0,0
0:2:40.417,650.659,36.818,0,0.000885,0,0
0:2:41.217,654.298,37.0248,0,0.000885,0,0
0:2:42.014,657.527,37.211,0,0.000885,0,0
0:2:42.829,661.402,37.4247,0,0.000885,0,0
0:2:43.623,664.747,37.6178,0,0.000885,0,0
0:2:44.418,668.092,37.804,0,0.000885,0,0
0:2:45.230,671.73,38.0108,0,0.000885,0,0
0:2:46.035,675.783,38.2383,0,0.000885,0,0
0:2:46.827,678.892,38.4176,0,0.000885,0,0
0:2:47.620,681.944,38.59,0,0.000885,0,0
0:2:48.417,685.702,38.8037,0,0.000885,0,0
0:2:49.210,689.163,38.9967,0,0.000885,0,0
0:2:50.017,692.57,39.1898,0,0.000885,0,0
0:2:50.824,696.151,39.3966,0,0.000885,0,0
0:2:51.620,699.905,39.6035,0,0.000885,0,0
0:2:52.413,704.309,39.8586,0,0.000885,0,0
0:2:53.209,707.539,40.0379,0,0.000885,0,0
0:2:54.003,712.819,40.3343,0,0.000885,0,0
0:2:54.801,713.348,40.3688,0,0.000885,0,0
0:2:55.610,716.226,40.5274,0,0.000885,0,0
0:2:56.408,720.274,40.7618,0,0.000885,0,0
0:2:57.205,724.442,40.9962,0,0.000885,0,0
0:2:57.998,727.907,41.1893,0,0.000885,0,0
0:2:58.796,731.603,41.403,0,0.000885,0,0
0:2:59.598,735.771,41.6374,0,0.000885,0,0
0:3:0.405,738.707,41.8029,0,0.000885,0,0
0:3:1.213,742.23,42.0029,0,0.000885,0,0
0:3:2.015,745.455,42.1821,0,0.000885,0,0
0:3:2.810,749.156,42.3959,0,0.000885,0,0
0:3:3.602,752.501,42.582,0,0.000885,0,0
0:3:4.400,754.498,42.6923,0,0.000885,0,0
0:3:5.210,757.959,42.8923,0,0.000885,0,0
0:3:6.011,759.485,42.975,0,0.000885,0,0
0:3:6.802,757.256,42.8509,0,0.000885,0,0
0:3:7.594,733.832,41.5271,0,0.000885,0,0
0:3:8.388,624.655,35.3494,0,0.000885,0,0
0:3:8.871,533.956,30.2128,0,0.000885,0,0