File: DataFile2021-06-09_070206.csv
Test ID:,Date Tested:,Time:,Test Type:,Diameter Avg. (mm):,Cyl. Corr. Factor:,Height (mm):,Age (days):,Weight (kN):,Break Type:,Ramp Rate (MPa/s):,Load at Break (kN):,Stress at Break (MPa):
12,6/9/2021,07:02,Cylinder,100,1,200,0,3.6,Invalid/No Break,0.25,533.31,67.9
Sample Time,Load (kN),Stress (MPa),Long. Strain,Trans. Strain,Chan1 Deflection (mm),Chan2 Deflection (mm)
0:0:3.832,5.80493,0.737739,0,0.000885,0,0
0:0:5.021,6.97926,0.889424,0,0.000885,0,0
0:0:6.216,9.67933,1.23416,0,0.000885,0,0
0:0:7.410,12.2593,1.55822,0,0.000885,0,0
0:0:8.600,14.0163,1.78574,0,0.000885,0,0
0:0:9.803,16.0714,2.04774,0,0.000885,0,0
0:0:11.015,19.412,2.47522,0,0.000885,0,0
0:0:12.206,21.5828,2.75101,0,0.000885,0,0
0:0:13.400,24.5141,3.12333,0,0.000885,0,0
0:0:14.606,26.5692,3.38533,0,0.000885,0,0
0:0:15.812,28.9713,3.6887,0,0.000885,0,0
0:0:17.006,30.6749,3.90243,0,0.000885,0,0
0:0:18.202,33.5485,4.27475,0,0.000885,0,0
0:0:19.400,35.8927,4.57122,0,0.000885,0,0
0:0:20.615,38.6506,4.92286,0,0.000885,0,0
0:0:21.812,40.4121,5.14349,0,0.000885,0,0
0:0:23.003,42.9921,5.47444,0,0.000885,0,0
0:0:24.197,45.3941,5.77781,0,0.000885,0,0
0:0:25.410,47.2713,6.01912,0,0.000885,0,0
0:0:26.607,49.3842,6.28802,0,0.000885,0,0
0:0:27.803,52.3734,6.66723,0,0.000885,0,0
0:0:28.999,54.8377,6.98439,0,0.000885,0,0
0:0:30.214,56.7727,7.22571,0,0.000885,0,0
0:0:31.414,59.5305,7.57734,0,0.000885,0,0
0:0:32.610,61.7591,7.86002,0,0.000885,0,0
0:0:33.801,64.3391,8.19097,0,0.000885,0,0
0:0:35.012,67.097,8.5426,0,0.000885,0,0
0:0:36.215,68.5026,8.72187,0,0.000885,0,0
0:0:37.408,71.1449,9.05971,0,0.000885,0,0
0:0:38.603,73.4312,9.34929,0,0.000885,0,0
0:0:39.808,75.3662,9.5975,0,0.000885,0,0
0:0:41.014,78.4177,9.98361,0,0.000885,0,0
0:0:42.208,80.7619,10.2801,0,0.000885,0,0
0:0:43.406,82.7547,10.5352,0,0.000885,0,0
0:0:44.605,84.9254,10.811,0,0.000885,0,0
0:0:45.817,87.5632,11.1488,0,0.000885,0,0
0:0:47.012,89.8541,11.4384,0,0.000885,0,0
0:0:48.205,92.1983,11.7418,0,0.000885,0,0
0:0:49.401,94.7783,12.0658,0,0.000885,0,0
0:0:50.616,96.7755,12.3209,0,0.000885,0,0
0:0:51.814,99.8804,12.7139,0,0.000885,0,0
0:0:53.009,101.464,12.9208,0,0.000885,0,0
0:0:54.207,104.458,13.3,0,0.000885,0,0
0:0:55.421,107.095,13.6378,0,0.000885,0,0
0:0:56.618,108.443,13.8102,0,0.000885,0,0
0:0:57.807,110.965,14.1274,0,0.000885,0,0
0:0:59.001,113.665,14.4721,0,0.000885,0,0
0:1:0.213,116.13,14.7893,0,0.000885,0,0
0:1:1.412,118.652,15.1064,0,0.000885,0,0
0:1:2.610,120.938,15.396,0,0.000885,0,0
0:1:3.804,122.989,15.658,0,0.000885,0,0
0:1:5.012,125.102,15.9269,0,0.000885,0,0
0:1:6.216,127.508,16.2372,0,0.000885,0,0
0:1:7.408,130.088,16.5612,0,0.000885,0,0
0:1:8.599,132.49,16.8715,0,0.000885,0,0
0:1:9.804,134.777,17.1611,0,0.000885,0,0
0:1:11.009,137.01,17.4437,0,0.000885,0,0
0:1:12.205,140.177,17.8505,0,0.000885,0,0
0:1:13.399,141.698,18.0436,0,0.000885,0,0
0:1:14.595,143.869,18.3194,0,0.000885,0,0
0:1:15.806,146.04,18.5952,0,0.000885,0,0
0:1:17.001,148.797,18.9468,0,0.000885,0,0
0:1:18.189,151.671,19.3122,0,0.000885,0,0
0:1:19.392,153.9,19.5949,0,0.000885,0,0
0:1:20.602,156.186,19.8845,0,0.000885,0,0
0:1:21.792,157.947,20.112,0,0.000885,0,0
0:1:22.985,160.47,20.4292,0,0.000885,0,0
0:1:24.178,162.814,20.7325,0,0.000885,0,0
0:1:25.389,165.278,21.0428,0,0.000885,0,0
0:1:26.586,168.032,21.3944,0,0.000885,0,0
0:1:27.780,170.087,21.6564,0,0.000885,0,0
0:1:28.980,172.315,21.9391,0,0.000885,0,0
0:1:30.190,174.366,22.2011,0,0.000885,0,0
0:1:31.390,176.83,22.5183,0,0.000885,0,0
0:1:32.576,179.352,22.8354,0,0.000885,0,0
0:1:33.781,181.995,23.1733,0,0.000885,0,0
0:1:34.991,183.458,23.3594,0,0.000885,0,0
0:1:36.188,186.509,23.7455,0,0.000885,0,0
0:1:37.388,188.035,23.9386,0,0.000885,0,0
0:1:38.582,191.727,24.4143,0,0.000885,0,0
0:1:39.782,193.547,24.6419,0,0.000885,0,0
0:1:40.983,196.069,24.9659,0,0.000885,0,0
0:1:42.179,197.594,25.159,0,0.000885,0,0
0:1:43.376,200.641,25.5451,0,0.000885,0,0
0:1:44.577,203.457,25.9036,0,0.000885,0,0
0:1:45.780,205.686,26.1863,0,0.000885,0,0
0:1:46.968,208.266,26.5172,0,0.000885,0,0
0:1:48.168,209.969,26.731,0,0.000885,0,0
0:1:49.387,212.665,27.0757,0,0.000885,0,0
0:1:50.590,214.133,27.2619,0,0.000885,0,0
0:1:51.775,216.833,27.6066,0,0.000885,0,0
0:1:52.982,219.88,27.9927,0,0.000885,0,0
0:1:54.173,221.757,28.234,0,0.000885,0,0
0:1:55.381,224.222,28.5512,0,0.000885,0,0
0:1:56.566,226.979,28.9028,0,0.000885,0,0
0:1:57.750,229.088,29.1717,0,0.000885,0,0
0:1:58.931,231.437,29.4682,0,0.000885,0,0
0:2:0.137,232.784,29.6406,0,0.000885,0,0
0:2:1.328,235.306,29.9577,0,0.000885,0,0
0:2:2.511,237.651,30.2611,0,0.000885,0,0
0:2:3.697,240.351,30.5989,0,0.000885,0,0
0:2:4.895,243.104,30.9506,0,0.000885,0,0
0:2:6.089,245.044,31.1988,0,0.000885,0,0
0:2:7.275,247.566,31.5228,0,0.000885,0,0
0:2:8.490,249.732,31.7986,0,0.000885,0,0
0:2:9.687,251.551,32.0261,0,0.000885,0,0
0:2:10.884,254.776,32.4398,0,0.000885,0,0
0:2:12.089,257.298,32.757,0,0.000885,0,0
0:2:13.269,258.588,32.9225,0,0.000885,0,0
0:2:14.482,262.227,33.3844,0,0.000885,0,0
0:2:15.684,263.575,33.5568,0,0.000885,0,0
0:2:16.885,267.036,33.998,0,0.000885,0,0
0:2:18.078,268.619,34.2049,0,0.000885,0,0
0:2:19.284,271.199,34.5289,0,0.000885,0,0
0:2:20.490,272.961,34.7565,0,0.000885,0,0
0:2:21.687,275.776,35.115,0,0.000885,0,0
0:2:22.881,278.53,35.4666,0,0.000885,0,0
0:2:24.089,280.879,35.7631,0,0.000885,0,0
0:2:25.292,282.578,35.9768,0,0.000885,0,0
0:2:26.486,285.393,36.3354,0,0.000885,0,0
0:2:27.666,287.622,36.6181,0,0.000885,0,0
0:2:28.870,289.793,36.9007,0,0.000885,0,0
0:2:30.074,292.137,37.1972,0,0.000885,0,0
0:2:31.266,294.543,37.5006,0,0.000885,0,0
0:2:32.477,296.888,37.804,0,0.000885,0,0
0:2:33.674,299.588,38.1418,0,0.000885,0,0
0:2:34.891,302.052,38.459,0,0.000885,0,0
0:2:36.085,304.512,38.7692,0,0.000885,0,0
0:2:37.290,306.158,38.983,0,0.000885,0,0
0:2:38.490,308.738,39.307,0,0.000885,0,0
0:2:39.694,311.26,39.6311,0,0.000885,0,0
0:2:40.886,313.426,39.9069,0,0.000885,0,0
0:2:42.087,315.775,40.2033,0,0.000885,0,0
0:2:43.280,318.413,40.5412,0,0.000885,0,0
0:2:44.478,320.699,40.8308,0,0.000885,0,0
0:2:45.676,322.518,41.0652,0,0.000885,0,0
0:2:46.890,325.512,41.4444,0,0.000885,0,0
0:2:48.088,327.62,41.7133,0,0.000885,0,0
0:2:49.282,329.791,41.9891,0,0.000885,0,0
0:2:50.490,332.607,42.3476,0,0.000885,0,0
0:2:51.688,334.72,42.6165,0,0.000885,0,0
0:2:52.888,337.593,42.9819,0,0.000885,0,0
0:2:54.092,339.764,43.2577,0,0.000885,0,0
0:2:55.297,341.521,43.4852,0,0.000885,0,0
0:2:56.496,344.808,43.8989,0,0.000885,0,0
0:2:57.678,346.681,44.1402,0,0.000885,0,0
0:2:58.864,348.736,44.4022,0,0.000885,0,0
0:3:0.069,350.787,44.6642,0,0.000885,0,0
0:3:1.258,354.074,45.0848,0,0.000885,0,0
0:3:2.446,355.831,45.3055,0,0.000885,0,0
0:3:3.628,358.18,45.6019,0,0.000885,0,0
0:3:4.829,361.289,46.0018,0,0.000885,0,0
0:3:6.022,362.873,46.2018,0,0.000885,0,0
0:3:7.208,365.217,46.4982,0,0.000885,0,0
0:3:8.389,367.388,46.774,0,0.000885,0,0
0:3:9.593,369.438,47.036,0,0.000885,0,0
0:3:10.796,372.08,47.3739,0,0.000885,0,0
0:3:11.996,374.189,47.6428,0,0.000885,0,0
0:3:13.182,376.244,47.9048,0,0.000885,0,0
0:3:14.377,379.175,48.2771,0,0.000885,0,0
0:3:15.582,381.404,48.5598,0,0.000885,0,0
0:3:16.779,384.687,48.9804,0,0.000885,0,0
0:3:17.982,386.155,49.1665,0,0.000885,0,0
0:3:19.194,388.792,49.5044,0,0.000885,0,0
0:3:20.396,391.435,49.8422,0,0.000885,0,0
0:3:21.583,393.605,50.118,0,0.000885,0,0
0:3:22.796,396.065,50.4283,0,0.000885,0,0
0:3:23.994,398.236,50.704,0,0.000885,0,0
0:3:25.198,400.585,51.0005,0,0.000885,0,0
0:3:26.386,402.462,51.2418,0,0.000885,0,0
0:3:27.595,405.335,51.6073,0,0.000885,0,0
0:3:28.786,407.212,51.8486,0,0.000885,0,0
0:3:29.992,409.908,52.1933,0,0.000885,0,0
0:3:31.197,411.785,52.4277,0,0.000885,0,0
0:3:32.386,414.601,52.7863,0,0.000885,0,0
0:3:33.573,417.181,53.1172,0,0.000885,0,0
0:3:34.781,419.352,53.393,0,0.000885,0,0
0:3:35.969,421.287,53.6412,0,0.000885,0,0
0:3:37.156,423.573,53.9308,0,0.000885,0,0
0:3:38.346,426.624,54.3169,0,0.000885,0,0
0:3:39.543,428.733,54.5858,0,0.000885,0,0
0:3:40.736,430.904,54.8616,0,0.000885,0,0
0:3:41.921,433.074,55.1443,0,0.000885,0,0
0:3:43.104,435.481,55.4476,0,0.000885,0,0
0:3:44.301,437.709,55.7303,0,0.000885,0,0
0:3:45.501,440.347,56.0682,0,0.000885,0,0
0:3:46.685,442.224,56.3026,0,0.000885,0,0
0:3:47.878,444.924,56.6473,0,0.000885,0,0
0:3:49.065,447.447,56.9714,0,0.000885,0,0
0:3:50.271,449.555,57.2403,0,0.000885,0,0
0:3:51.457,451.196,57.4471,0,0.000885,0,0
0:3:52.645,454.07,57.8125,0,0.000885,0,0
0:3:53.831,456.948,58.178,0,0.000885,0,0
0:3:55.036,458.999,58.44,0,0.000885,0,0
0:3:56.224,461.405,58.7502,0,0.000885,0,0
0:3:57.409,463.985,59.0743,0,0.000885,0,0
0:3:58.602,466.329,59.3776,0,0.000885,0,0
0:3:59.808,468.264,59.619,0,0.000885,0,0
0:4:1.000,470.964,59.9637,0,0.000885,0,0
0:4:2.200,472.784,60.1981,0,0.000885,0,0
0:4:3.397,475.421,60.5291,0,0.000885,0,0
0:4:4.595,477.414,60.7842,0,0.000885,0,0
0:4:5.799,479.879,61.1013,0,0.000885,0,0
0:4:6.996,482.574,61.4461,0,0.000885,0,0
0:4:8.190,484.451,61.6805,0,0.000885,0,0
0:4:9.401,487.151,62.0252,0,0.000885,0,0
0:4:10.592,489.086,62.2734,0,0.000885,0,0
0:4:11.788,491.493,62.5768,0,0.000885,0,0
0:4:12.999,493.37,62.8181,0,0.000885,0,0
0:4:14.208,496.653,63.2387,0,0.000885,0,0
0:4:15.411,498.646,63.4869,0,0.000885,0,0
0:4:16.603,501.933,63.9075,0,0.000885,0,0
0:4:17.799,503.868,64.1557,0,0.000885,0,0
0:4:18.986,506.448,64.4798,0,0.000885,0,0
0:4:20.190,508.619,64.7625,0,0.000885,0,0
0:4:21.378,510.554,65.0038,0,0.000885,0,0
0:4:22.605,513.191,65.3416,0,0.000885,0,0
0:4:23.807,515.54,65.6381,0,0.000885,0,0
0:4:25.013,517.769,65.9208,0,0.000885,0,0
0:4:26.201,520.642,66.2931,0,0.000885,0,0
0:4:27.391,522.341,66.5068,0,0.000885,0,0
0:4:28.577,524.103,66.7275,0,0.000885,0,0
0:4:29.781,526.563,67.0446,0,0.000885,0,0
0:4:30.969,529.263,67.3894,0,0.000885,0,0
0:4:32.154,531.198,67.6376,0,0.000885,0,0
0:4:33.342,526.683,67.0584,0,0.000885,0,0
0:4:34.539,528.44,67.2859,0,0.000885,0,0
0:4:35.730,532.955,67.8582,0,0.000885,0,0
0:4:36.274,533.311,67.8996,0,0.000885,0,0