File: DataFile2021-06-09_075412.csv
Test ID:,Date Tested:,Time:,Test Type:,Diameter Avg. (mm):,Cyl. Corr. Factor:,Height (mm):,Age (days):,Weight (kN):,Break Type:,Ramp Rate (MPa/s):,Load at Break (kN):,Stress at Break (MPa):
12,6/9/2021,07:54,Cylinder,100,1,200,0,3.6,3,0.25,733.72,93.42
Sample Time,Load (kN),Stress (MPa),Long. Strain,Trans. Strain,Chan1 Deflection (mm),Chan2 Deflection (mm)
0:0:13.160,5.33787,0.682581,0,0.000885,0,0
0:0:14.749,9.32347,1.1859,0,0.000885,0,0
0:0:16.335,10.9693,1.39964,0,0.000885,0,0
0:0:17.924,14.0742,1.79264,0,0.000885,0,0
0:0:19.529,17.0678,2.17185,0,0.000885,0,0
0:0:21.129,20.3506,2.59243,0,0.000885,0,0
0:0:22.720,23.7535,3.0268,0,0.000885,0,0
0:0:24.332,26.805,3.4129,0,0.000885,0,0
0:0:25.933,30.497,3.88175,0,0.000885,0,0
0:0:27.526,34.8963,4.44022,0,0.000885,0,0
0:0:29.129,37.245,4.74359,0,0.000885,0,0
0:0:30.731,39.4735,5.02628,0,0.000885,0,0
0:0:32.321,42.3471,5.3917,0,0.000885,0,0
0:0:33.921,45.3941,5.77781,0,0.000885,0,0
0:0:35.529,49.0327,6.23976,0,0.000885,0,0
0:0:37.124,52.6091,6.7017,0,0.000885,0,0
0:0:38.726,55.4827,7.06713,0,0.000885,0,0
0:0:40.335,58.8856,7.4946,0,0.000885,0,0
0:0:41.925,61.4077,7.81865,0,0.000885,0,0
0:0:43.520,64.8106,8.25302,0,0.000885,0,0
0:0:45.131,67.9154,8.64603,0,0.000885,0,0
0:0:46.722,70.9669,9.03903,0,0.000885,0,0
0:0:48.313,74.1341,9.43892,0,0.000885,0,0
0:0:49.928,77.4168,9.8595,0,0.000885,0,0
0:0:51.520,80.4683,10.2456,0,0.000885,0,0
0:0:53.112,83.7511,10.6662,0,0.000885,0,0
0:0:54.722,86.6869,11.0385,0,0.000885,0,0
0:0:56.322,90.0276,11.466,0,0.000885,0,0
0:0:57.913,93.079,11.8521,0,0.000885,0,0
0:0:59.526,96.0104,12.2244,0,0.000885,0,0
0:1:1.119,99.7069,12.6932,0,0.000885,0,0
0:1:2.710,102.287,13.0242,0,0.000885,0,0
0:1:4.318,105.396,13.4172,0,0.000885,0,0
0:1:5.918,108.737,13.8447,0,0.000885,0,0
0:1:7.511,112.318,14.2997,0,0.000885,0,0
0:1:9.113,115.543,14.7134,0,0.000885,0,0
0:1:10.721,117.945,15.0168,0,0.000885,0,0
0:1:12.313,121.232,15.4374,0,0.000885,0,0
0:1:13.918,124.221,15.8166,0,0.000885,0,0
0:1:15.518,127.33,16.2096,0,0.000885,0,0
0:1:17.107,130.965,16.6784,0,0.000885,0,0
0:1:18.717,134.074,17.0714,0,0.000885,0,0
0:1:20.328,137.183,17.4644,0,0.000885,0,0
0:1:21.921,139.883,17.8092,0,0.000885,0,0
0:1:23.515,143.166,18.2297,0,0.000885,0,0
0:1:25.128,146.097,18.6021,0,0.000885,0,0
0:1:26.719,149.91,19.0847,0,0.000885,0,0
0:1:28.312,153.197,19.5053,0,0.000885,0,0
0:1:29.928,155.599,19.8086,0,0.000885,0,0
0:1:31.522,159.002,20.243,0,0.000885,0,0
0:1:33.116,162.227,20.6567,0,0.000885,0,0
0:1:34.725,164.927,21.0014,0,0.000885,0,0
0:1:36.319,168.619,21.4703,0,0.000885,0,0
0:1:37.912,170.967,21.7667,0,0.000885,0,0
0:1:39.522,175.189,22.3045,0,0.000885,0,0
0:1:41.122,177.653,22.6217,0,0.000885,0,0
0:1:42.715,180.469,22.9802,0,0.000885,0,0
0:1:44.325,184.281,23.4629,0,0.000885,0,0
0:1:45.921,186.683,23.7662,0,0.000885,0,0
0:1:47.512,190.789,24.2902,0,0.000885,0,0
0:1:49.118,193.724,24.6625,0,0.000885,0,0
0:1:50.716,196.714,25.0487,0,0.000885,0,0
0:1:52.303,199.351,25.3796,0,0.000885,0,0
0:1:53.914,203.399,25.8967,0,0.000885,0,0
0:1:55.511,206.744,26.3242,0,0.000885,0,0
0:1:57.099,209.498,26.6758,0,0.000885,0,0
0:1:58.700,212.256,27.0274,0,0.000885,0,0
0:2:0.313,215.481,27.4342,0,0.000885,0,0
0:2:1.900,218.826,27.8617,0,0.000885,0,0
0:2:3.506,221.993,28.2616,0,0.000885,0,0
0:2:5.105,225.334,28.6891,0,0.000885,0,0
0:2:6.695,228.207,29.0545,0,0.000885,0,0
0:2:8.305,231.374,29.4613,0,0.000885,0,0
0:2:9.914,233.959,29.7854,0,0.000885,0,0
0:2:11.512,236.832,30.1508,0,0.000885,0,0
0:2:13.113,241.111,30.7024,0,0.000885,0,0
0:2:14.720,244.105,31.0816,0,0.000885,0,0
0:2:16.311,246.098,31.3367,0,0.000885,0,0
0:2:17.911,250.146,31.8469,0,0.000885,0,0
0:2:19.507,253.544,32.2813,0,0.000885,0,0
0:2:21.106,256.36,32.6398,0,0.000885,0,0
0:2:22.705,259.878,33.0879,0,0.000885,0,0
0:2:24.314,262.107,33.3706,0,0.000885,0,0
0:2:25.909,265.63,33.8188,0,0.000885,0,0
0:2:27.506,269.322,34.2945,0,0.000885,0,0
0:2:29.117,272.138,34.6531,0,0.000885,0,0
0:2:30.719,275.189,35.0392,0,0.000885,0,0
0:2:32.315,278.299,35.4322,0,0.000885,0,0
0:2:33.923,281.346,35.8252,0,0.000885,0,0
0:2:35.517,284.633,36.2388,0,0.000885,0,0
0:2:37.106,287.8,36.6456,0,0.000885,0,0
0:2:38.705,290.553,36.9973,0,0.000885,0,0
0:2:40.309,294.717,37.5282,0,0.000885,0,0
0:2:41.919,297.653,37.9005,0,0.000885,0,0
0:2:43.517,300.175,38.2176,0,0.000885,0,0
0:2:45.119,303.809,38.6796,0,0.000885,0,0
0:2:46.705,306.567,39.0312,0,0.000885,0,0
0:2:48.315,309.556,39.4173,0,0.000885,0,0
0:2:49.921,312.959,39.8448,0,0.000885,0,0
0:2:51.521,316.184,40.2585,0,0.000885,0,0
0:2:53.111,319.178,40.6377,0,0.000885,0,0
0:2:54.710,321.993,40.9962,0,0.000885,0,0
0:2:56.309,325.218,41.4099,0,0.000885,0,0
0:2:57.908,328.973,41.8857,0,0.000885,0,0
0:2:59.516,331.784,42.2442,0,0.000885,0,0
0:3:1.118,335.365,42.6992,0,0.000885,0,0
0:3:2.704,338.412,43.0853,0,0.000885,0,0
0:3:4.311,341.285,43.4508,0,0.000885,0,0
0:3:5.909,343.634,43.7541,0,0.000885,0,0
0:3:7.507,347.21,44.2092,0,0.000885,0,0
0:3:9.098,350.849,44.6711,0,0.000885,0,0
0:3:10.711,353.309,44.9883,0,0.000885,0,0
0:3:12.300,356.89,45.4433,0,0.000885,0,0
0:3:13.911,360.35,45.8777,0,0.000885,0,0
0:3:15.499,363.282,46.2569,0,0.000885,0,0
0:3:17.114,366.507,46.6637,0,0.000885,0,0
0:3:18.713,369.207,47.0085,0,0.000885,0,0
0:3:20.321,372.725,47.4566,0,0.000885,0,0
0:3:21.922,376.417,47.9255,0,0.000885,0,0
0:3:23.508,378.882,48.2426,0,0.000885,0,0
0:3:25.113,381.697,48.6011,0,0.000885,0,0
0:3:26.711,385.158,49.0424,0,0.000885,0,0
0:3:28.308,387.854,49.3803,0,0.000885,0,0
0:3:29.919,391.141,49.8008,0,0.000885,0,0
0:3:31.507,394.424,50.2214,0,0.000885,0,0
0:3:33.104,397.649,50.6282,0,0.000885,0,0
0:3:34.710,400.585,51.0005,0,0.000885,0,0
0:3:36.320,403.867,51.4211,0,0.000885,0,0
0:3:37.898,407.212,51.8486,0,0.000885,0,0
0:3:39.493,410.202,52.2278,0,0.000885,0,0
0:3:41.079,413.311,52.6277,0,0.000885,0,0
0:3:42.658,416.772,53.0621,0,0.000885,0,0
0:3:44.251,419.761,53.4482,0,0.000885,0,0
0:3:45.840,422.519,53.7998,0,0.000885,0,0
0:3:47.420,425.686,54.1997,0,0.000885,0,0
0:3:49.014,428.733,54.5858,0,0.000885,0,0
0:3:50.598,432.136,55.0202,0,0.000885,0,0
0:3:52.178,434.6,55.3373,0,0.000885,0,0
0:3:53.767,438.177,55.7924,0,0.000885,0,0
0:3:55.364,441.579,56.2267,0,0.000885,0,0
0:3:56.948,444.395,56.5853,0,0.000885,0,0
0:3:58.528,447.798,57.0127,0,0.000885,0,0
0:4:0.130,450.436,57.3506,0,0.000885,0,0
0:4:1.714,454.426,57.8608,0,0.000885,0,0
0:4:3.305,457.179,58.2124,0,0.000885,0,0
0:4:4.910,459.586,58.5158,0,0.000885,0,0
0:4:6.513,463.571,59.026,0,0.000885,0,0
0:4:8.113,466.329,59.3776,0,0.000885,0,0
0:4:9.718,469.554,59.7844,0,0.000885,0,0
0:4:11.326,472.139,60.1154,0,0.000885,0,0
0:4:12.921,476.182,60.6325,0,0.000885,0,0
0:4:14.526,479.176,61.0117,0,0.000885,0,0
0:4:16.115,482.401,61.4185,0,0.000885,0,0
0:4:17.714,484.981,61.7494,0,0.000885,0,0
0:4:19.321,487.97,62.1287,0,0.000885,0,0
0:4:20.917,491.373,62.563,0,0.000885,0,0
0:4:22.514,495.243,63.0595,0,0.000885,0,0
0:4:24.117,497.827,63.3835,0,0.000885,0,0
0:4:25.725,500.874,63.7765,0,0.000885,0,0
0:4:27.313,503.806,64.1488,0,0.000885,0,0
0:4:28.922,506.915,64.5418,0,0.000885,0,0
0:4:30.527,509.788,64.9072,0,0.000885,0,0
0:4:32.114,513.191,65.3416,0,0.000885,0,0
0:4:33.721,515.891,65.6864,0,0.000885,0,0
0:4:35.322,519.468,66.1414,0,0.000885,0,0
0:4:36.920,523.396,66.6378,0,0.000885,0,0
0:4:38.512,526.153,66.9895,0,0.000885,0,0
0:4:40.120,528.969,67.348,0,0.000885,0,0
0:4:41.717,532.603,67.8168,0,0.000885,0,0
0:4:43.308,535.419,68.1685,0,0.000885,0,0
0:4:44.913,539.293,68.6649,0,0.000885,0,0
0:4:46.489,541.344,68.9269,0,0.000885,0,0
0:4:48.069,544.92,69.3819,0,0.000885,0,0
0:4:49.672,547.678,69.7336,0,0.000885,0,0
0:4:51.253,551.023,70.1611,0,0.000885,0,0
0:4:52.833,554.191,70.5609,0,0.000885,0,0
0:4:54.433,557.647,71.0022,0,0.000885,0,0
0:4:56.036,560.231,71.3332,0,0.000885,0,0
0:4:57.636,563.278,71.7193,0,0.000885,0,0
0:4:59.236,566.975,72.1881,0,0.000885,0,0
0:5:0.831,569.555,72.5191,0,0.000885,0,0
0:5:2.431,573.193,72.981,0,0.000885,0,0
0:5:4.041,576.361,73.3809,0,0.000885,0,0
0:5:5.625,579.172,73.7394,0,0.000885,0,0
0:5:7.206,582.695,74.1876,0,0.000885,0,0
0:5:8.798,585.275,74.5185,0,0.000885,0,0
0:5:10.390,588.5,74.9322,0,0.000885,0,0
0:5:11.968,591.96,75.3735,0,0.000885,0,0
0:5:13.563,594.776,75.732,0,0.000885,0,0
0:5:15.168,597.534,76.0836,0,0.000885,0,0
0:5:16.756,601.235,76.5525,0,0.000885,0,0
0:5:18.354,603.815,76.8834,0,0.000885,0,0
0:5:19.959,607.516,77.3523,0,0.000885,0,0
0:5:21.545,610.452,77.7246,0,0.000885,0,0
0:5:23.133,613.325,78.09,0,0.000885,0,0
0:5:24.745,617.084,78.5727,0,0.000885,0,0
0:5:26.329,619.548,78.8829,0,0.000885,0,0
0:5:27.925,623.658,79.4069,0,0.000885,0,0
0:5:29.536,626.474,79.7654,0,0.000885,0,0
0:5:31.121,629.001,80.0895,0,0.000885,0,0
0:5:32.729,632.288,80.5032,0,0.000885,0,0
0:5:34.345,635.575,80.9238,0,0.000885,0,0
0:5:35.935,638.92,81.3512,0,0.000885,0,0
0:5:37.529,642.03,81.7442,0,0.000885,0,0
0:5:39.145,645.317,82.1648,0,0.000885,0,0
0:5:40.738,647.959,82.5027,0,0.000885,0,0
0:5:42.320,651.304,82.9232,0,0.000885,0,0
0:5:43.923,654.298,83.3094,0,0.000885,0,0
0:5:45.527,657.821,83.7575,0,0.000885,0,0
0:5:47.129,660.872,84.1436,0,0.000885,0,0
0:5:48.739,664.511,84.6056,0,0.000885,0,0
0:5:50.340,667.447,84.9848,0,0.000885,0,0
0:5:51.928,670.325,85.3502,0,0.000885,0,0
0:5:53.537,673.612,85.7639,0,0.000885,0,0
0:5:55.138,676.192,86.0948,0,0.000885,0,0
0:5:56.731,679.893,86.5637,0,0.000885,0,0
0:5:58.324,682.531,86.9015,0,0.000885,0,0
0:5:59.930,686.174,87.3635,0,0.000885,0,0
0:6:1.527,688.344,87.6393,0,0.000885,0,0
0:6:3.124,692.041,88.115,0,0.000885,0,0
0:6:4.737,695.622,88.5701,0,0.000885,0,0
0:6:6.323,698.206,88.901,0,0.000885,0,0
0:6:7.911,701.493,89.3147,0,0.000885,0,0
0:6:9.523,705.012,89.7628,0,0.000885,0,0
0:6:11.118,707.712,90.1076,0,0.000885,0,0
0:6:12.731,711.293,90.5626,0,0.000885,0,0
0:6:14.345,714.171,90.9281,0,0.000885,0,0
0:6:15.931,717.222,91.3211,0,0.000885,0,0
0:6:17.518,720.51,91.7416,0,0.000885,0,0
0:6:19.125,723.503,92.1209,0,0.000885,0,0
0:6:20.729,727.026,92.569,0,0.000885,0,0
0:6:22.323,729.081,92.831,0,0.000885,0,0
0:6:23.923,733.543,93.3964,0,0.000885,0,0
0:6:25.382,550.143,70.0438,0,0.000885,0,0