File: DataFile2021-07-28_094613.csv
Test ID:,Date Tested:,Time:,Test Type:,Diameter Avg. (mm):,Cyl. Corr. Factor:,Height (mm):,Age (days):,Weight (kN):,Break Type:,Ramp Rate (MPa/s):,Load at Break (kN):,Stress at Break (MPa):
12,7/28/2021,09:46,Cylinder,150,1,300,0,13.69,3,0.33,1324.47,74.95
Sample Time,Load (kN),Stress (MPa),Long. Strain,Trans. Strain,Chan1 Deflection (mm),Chan2 Deflection (mm)
0:0:8.305,7.15719,0.406791,0,0.000885,0,0
0:0:9.299,11.3207,0.641212,0,0.000885,0,0
0:0:10.294,17.0678,0.965266,0,0.000885,0,0
0:0:11.288,22.8149,1.28932,0,0.000885,0,0
0:0:12.283,29.4428,1.66853,0,0.000885,0,0
0:0:13.280,36.8313,2.08222,0,0.000885,0,0
0:0:14.283,43.7527,2.47522,0,0.000885,0,0
0:0:15.295,50.3227,2.84753,0,0.000885,0,0
0:0:16.293,54.8955,3.10954,0,0.000885,0,0
0:0:17.288,60.527,3.42669,0,0.000885,0,0
0:0:18.283,68.1512,3.85417,0,0.000885,0,0
0:0:19.288,73.8405,4.17822,0,0.000885,0,0
0:0:20.298,80.8197,4.57122,0,0.000885,0,0
0:0:21.295,85.9218,4.8608,0,0.000885,0,0
0:0:22.291,91.8469,5.19865,0,0.000885,0,0
0:0:23.285,98.5326,5.57786,0,0.000885,0,0
0:0:24.296,104.573,5.9157,0,0.000885,0,0
0:0:25.301,111.259,6.29491,0,0.000885,0,0
0:0:26.297,116.833,6.61207,0,0.000885,0,0
0:0:27.291,122.758,6.94992,0,0.000885,0,0
0:0:28.288,129.852,7.34981,0,0.000885,0,0
0:0:29.300,135.133,7.64629,0,0.000885,0,0
0:0:30.302,142.112,8.03929,0,0.000885,0,0
0:0:31.300,148.446,8.39781,0,0.000885,0,0
0:0:32.296,154.367,8.73566,0,0.000885,0,0
0:0:33.291,160.527,9.08729,0,0.000885,0,0
0:0:34.301,166.217,9.40445,0,0.000885,0,0
0:0:35.307,172.845,9.78366,0,0.000885,0,0
0:0:36.303,179.117,10.1353,0,0.000885,0,0
0:0:37.299,185.219,10.48,0,0.000885,0,0
0:0:38.294,191.669,10.8455,0,0.000885,0,0
0:0:39.290,197.359,11.1695,0,0.000885,0,0
0:0:40.293,203.284,11.5005,0,0.000885,0,0
0:0:41.283,210.027,11.8866,0,0.000885,0,0
0:0:42.271,215.717,12.2037,0,0.000885,0,0
0:0:43.259,221.406,12.5278,0,0.000885,0,0
0:0:44.254,228.385,12.9208,0,0.000885,0,0
0:0:45.257,234.368,13.2655,0,0.000885,0,0
0:0:46.258,241.169,13.6447,0,0.000885,0,0
0:0:47.254,246.859,13.9688,0,0.000885,0,0
0:0:48.262,252.668,14.2997,0,0.000885,0,0
0:0:49.268,259.176,14.6651,0,0.000885,0,0
0:0:50.261,264.691,14.9754,0,0.000885,0,0
0:0:51.259,271.608,15.3684,0,0.000885,0,0
0:0:52.255,278.005,15.7338,0,0.000885,0,0
0:0:53.254,283.868,16.0648,0,0.000885,0,0
0:0:54.261,290.202,16.4233,0,0.000885,0,0
0:0:55.258,296.007,16.7474,0,0.000885,0,0
0:0:56.255,302.11,17.099,0,0.000885,0,0
0:0:57.264,308.386,17.4506,0,0.000885,0,0
0:0:58.262,314.071,17.7747,0,0.000885,0,0
0:0:59.268,321.228,18.1746,0,0.000885,0,0
0:1:0.264,326.918,18.4986,0,0.000885,0,0
0:1:1.262,332.607,18.8227,0,0.000885,0,0
0:1:2.261,339.644,19.2226,0,0.000885,0,0
0:1:3.260,345.218,19.5328,0,0.000885,0,0
0:1:4.269,352.139,19.9258,0,0.000885,0,0
0:1:5.270,358.473,20.2844,0,0.000885,0,0
0:1:6.257,363.811,20.5877,0,0.000885,0,0
0:1:7.264,370.435,20.9601,0,0.000885,0,0
0:1:8.260,376.595,21.3117,0,0.000885,0,0
0:1:9.259,382.93,21.6702,0,0.000885,0,0
0:1:10.260,388.735,22.0012,0,0.000885,0,0
0:1:11.258,394.717,22.339,0,0.000885,0,0
0:1:12.264,401.581,22.7251,0,0.000885,0,0
0:1:13.262,407.564,23.063,0,0.000885,0,0
0:1:14.268,414.014,23.4284,0,0.000885,0,0
0:1:15.264,419.525,23.7386,0,0.000885,0,0
0:1:16.261,425.277,24.0627,0,0.000885,0,0
0:1:17.262,432.55,24.4764,0,0.000885,0,0
0:1:18.260,438.177,24.7935,0,0.000885,0,0
0:1:19.271,444.924,25.1797,0,0.000885,0,0
0:1:20.273,450.551,25.4968,0,0.000885,0,0
0:1:21.262,456.654,25.8416,0,0.000885,0,0
0:1:22.259,463.34,26.2208,0,0.000885,0,0
0:1:23.253,469.203,26.5517,0,0.000885,0,0
0:1:24.250,474.367,26.8413,0,0.000885,0,0
0:1:25.252,481.578,27.255,0,0.000885,0,0
0:1:26.263,487.445,27.5859,0,0.000885,0,0
0:1:27.260,494.776,27.9996,0,0.000885,0,0
0:1:28.265,499.584,28.2685,0,0.000885,0,0
0:1:29.271,506.621,28.6684,0,0.000885,0,0
0:1:30.266,512.311,28.9925,0,0.000885,0,0
0:1:31.263,518.707,29.351,0,0.000885,0,0
0:1:32.261,525.041,29.7095,0,0.000885,0,0
0:1:33.259,531.14,30.0542,0,0.000885,0,0
0:1:34.262,536.709,30.3714,0,0.000885,0,0
0:1:35.261,543.866,30.7782,0,0.000885,0,0
0:1:36.259,549.907,31.116,0,0.000885,0,0
0:1:37.259,556.063,31.4677,0,0.000885,0,0
0:1:38.266,561.521,31.7779,0,0.000885,0,0
0:1:39.266,567.62,32.1227,0,0.000885,0,0
0:1:40.267,574.305,32.5019,0,0.000885,0,0
0:1:41.252,580.23,32.8328,0,0.000885,0,0
0:1:42.250,587.383,33.2396,0,0.000885,0,0
0:1:43.263,593.428,33.5844,0,0.000885,0,0
0:1:44.277,599.651,33.936,0,0.000885,0,0
0:1:45.283,605.523,34.2669,0,0.000885,0,0
0:1:46.276,610.51,34.5496,0,0.000885,0,0
0:1:47.269,618.316,34.9909,0,0.000885,0,0
0:1:48.260,624.13,35.3218,0,0.000885,0,0
0:1:49.270,629.997,35.6528,0,0.000885,0,0
0:1:50.272,636.572,36.0251,0,0.000885,0,0
0:1:51.265,642.679,36.3698,0,0.000885,0,0
0:1:52.268,649.311,36.7422,0,0.000885,0,0
0:1:53.262,654.302,37.0248,0,0.000885,0,0
0:1:54.267,660.757,37.3903,0,0.000885,0,0
0:1:55.272,667.158,37.7557,0,0.000885,0,0
0:1:56.265,673.67,38.1211,0,0.000885,0,0
0:1:57.268,680.831,38.5279,0,0.000885,0,0
0:1:58.270,685.765,38.8037,0,0.000885,0,0
0:1:59.271,691.165,39.114,0,0.000885,0,0
0:2:0.277,697.855,39.4932,0,0.000885,0,0
0:2:1.270,704.429,39.8655,0,0.000885,0,0
0:2:2.263,710.83,40.224,0,0.000885,0,0
0:2:3.264,716.991,40.5756,0,0.000885,0,0
0:2:4.273,722.391,40.879,0,0.000885,0,0
0:2:5.273,728.792,41.2444,0,0.000885,0,0
0:2:6.263,735.189,41.603,0,0.000885,0,0
0:2:7.255,740.998,41.9339,0,0.000885,0,0
0:2:8.259,747.693,42.3131,0,0.000885,0,0
0:2:9.267,753.093,42.6165,0,0.000885,0,0
0:2:10.270,760.077,43.0095,0,0.000885,0,0
0:2:11.263,765.828,43.3404,0,0.000885,0,0
0:2:12.267,771.17,43.6369,0,0.000885,0,0
0:2:13.257,778.216,44.0368,0,0.000885,0,0
0:2:14.274,784.729,44.4091,0,0.000885,0,0
0:2:15.279,791.13,44.7677,0,0.000885,0,0
0:2:16.271,796.765,45.0848,0,0.000885,0,0
0:2:17.265,802.166,45.3951,0,0.000885,0,0
0:2:18.265,809.501,45.8088,0,0.000885,0,0
0:2:19.278,815.315,46.1397,0,0.000885,0,0
0:2:20.286,822.005,46.5189,0,0.000885,0,0
0:2:21.278,828.108,46.8637,0,0.000885,0,0
0:2:22.270,833.979,47.1946,0,0.000885,0,0
0:2:23.260,840.26,47.5462,0,0.000885,0,0
0:2:24.273,846.363,47.891,0,0.000885,0,0
0:2:25.273,853.761,48.3116,0,0.000885,0,0
0:2:26.266,858.751,48.5942,0,0.000885,0,0
0:2:27.258,864.387,48.9114,0,0.000885,0,0
0:2:28.264,871.313,49.3044,0,0.000885,0,0
0:2:29.278,877.123,49.6354,0,0.000885,0,0
0:2:30.284,884.4,50.049,0,0.000885,0,0
0:2:31.278,889.569,50.3386,0,0.000885,0,0
0:2:32.271,895.729,50.6903,0,0.000885,0,0
0:2:33.264,902.068,51.0488,0,0.000885,0,0
0:2:34.277,908.585,51.4142,0,0.000885,0,0
0:2:35.283,914.279,51.7383,0,0.000885,0,0
0:2:36.276,920.795,52.1037,0,0.000885,0,0
0:2:37.269,926.667,52.4415,0,0.000885,0,0
0:2:38.260,933.651,52.8345,0,0.000885,0,0
0:2:39.272,939.286,53.1517,0,0.000885,0,0
0:2:40.280,945.567,53.5102,0,0.000885,0,0
0:2:41.274,951.848,53.8618,0,0.000885,0,0
0:2:42.265,957.658,54.1928,0,0.000885,0,0
0:2:43.268,964.116,54.5582,0,0.000885,0,0
0:2:44.269,970.277,54.9098,0,0.000885,0,0
0:2:45.275,976.91,55.2822,0,0.000885,0,0
0:2:46.270,982.488,55.5993,0,0.000885,0,0
0:2:47.260,987.946,55.9096,0,0.000885,0,0
0:2:48.274,995.285,56.3233,0,0.000885,0,0
0:2:49.284,1000.98,56.6404,0,0.000885,0,0
0:2:50.282,1006.97,56.9852,0,0.000885,0,0
0:2:51.275,1013.48,57.3506,0,0.000885,0,0
0:2:52.267,1019.18,57.6746,0,0.000885,0,0
0:2:53.260,1025.69,58.0401,0,0.000885,0,0
0:2:54.271,1031.32,58.3641,0,0.000885,0,0
0:2:55.273,1037.73,58.7226,0,0.000885,0,0
0:2:56.264,1044.18,59.0881,0,0.000885,0,0
0:2:57.270,1049.99,59.419,0,0.000885,0,0
0:2:58.262,1057.04,59.8189,0,0.000885,0,0
0:2:59.271,1062.73,60.1361,0,0.000885,0,0
0:3:0.275,1068.25,60.4532,0,0.000885,0,0
0:3:1.270,1075.06,60.8324,0,0.000885,0,0
0:3:2.272,1080.98,61.1703,0,0.000885,0,0
0:3:3.262,1086.44,61.4806,0,0.000885,0,0
0:3:4.269,1093.6,61.8873,0,0.000885,0,0
0:3:5.275,1099.94,62.2459,0,0.000885,0,0
0:3:6.276,1106.05,62.5906,0,0.000885,0,0
0:3:7.270,1111.92,62.9216,0,0.000885,0,0
0:3:8.260,1117.32,63.2249,0,0.000885,0,0
0:3:9.274,1124.42,63.6317,0,0.000885,0,0
0:3:10.281,1130.24,63.9558,0,0.000885,0,0
0:3:11.272,1136.57,64.3143,0,0.000885,0,0
0:3:12.264,1142.85,64.6728,0,0.000885,0,0
0:3:13.266,1148.43,64.99,0,0.000885,0,0
0:3:14.278,1154.65,65.3416,0,0.000885,0,0
0:3:15.277,1160.52,65.6726,0,0.000885,0,0
0:3:16.269,1167.45,66.0656,0,0.000885,0,0
0:3:17.260,1173.55,66.4103,0,0.000885,0,0
0:3:18.262,1179.6,66.755,0,0.000885,0,0
0:3:19.273,1185.65,67.0929,0,0.000885,0,0
0:3:20.273,1191.34,67.4169,0,0.000885,0,0
0:3:21.264,1198.38,67.8168,0,0.000885,0,0
0:3:22.270,1204.31,68.1478,0,0.000885,0,0
0:3:23.261,1209.65,68.4512,0,0.000885,0,0
0:3:24.271,1214.82,68.7476,0,0.000885,0,0
0:3:25.273,1219.92,69.0303,0,0.000885,0,0
0:3:26.264,1224.68,69.3061,0,0.000885,0,0
0:3:27.259,1228.96,69.5474,0,0.000885,0,0
0:3:28.271,1232.84,69.7612,0,0.000885,0,0
0:3:29.288,1237.59,70.0369,0,0.000885,0,0
0:3:30.292,1241.23,70.2369,0,0.000885,0,0
0:3:31.285,1244.87,70.4437,0,0.000885,0,0
0:3:32.279,1248.1,70.6299,0,0.000885,0,0
0:3:33.274,1252.04,70.8505,0,0.000885,0,0
0:3:34.277,1256.67,71.1125,0,0.000885,0,0
0:3:35.281,1260.25,71.3125,0,0.000885,0,0
0:3:36.275,1263.13,71.4779,0,0.000885,0,0
0:3:37.265,1265.89,71.6365,0,0.000885,0,0
0:3:38.278,1267.77,71.7399,0,0.000885,0,0
0:3:39.279,1271.58,71.9537,0,0.000885,0,0
0:3:40.285,1273.17,72.0433,0,0.000885,0,0
0:3:41.277,1277.22,72.2777,0,0.000885,0,0
0:3:42.268,1280.91,72.4846,0,0.000885,0,0
0:3:43.259,1284.61,72.6914,0,0.000885,0,0
0:3:44.272,1288.49,72.9121,0,0.000885,0,0
0:3:45.269,1291.95,73.112,0,0.000885,0,0
0:3:46.262,1294.59,73.2568,0,0.000885,0,0
0:3:47.277,1298.52,73.4843,0,0.000885,0,0
0:3:48.269,1301.58,73.6567,0,0.000885,0,0
0:3:49.276,1304.63,73.8291,0,0.000885,0,0
0:3:50.279,1307.92,74.0152,0,0.000885,0,0
0:3:51.269,1311.03,74.1876,0,0.000885,0,0
0:3:52.274,1314.84,74.4082,0,0.000885,0,0
0:3:53.275,1317.66,74.5668,0,0.000885,0,0
0:3:54.286,1320.3,74.7116,0,0.000885,0,0
0:3:55.294,1322.71,74.8495,0,0.000885,0,0
0:3:56.284,1324.88,74.9736,0,0.000885,0,0
0:3:57.275,1172.03,66.3207,0,0.000885,0,0
0:3:57.628,971.572,54.9788,0,0.000885,0,0