File: DataFile2021-06-07_032736.csv
Test ID:,Date Tested:,Time:,Test Type:,Diameter Avg. (mm):,Cyl. Corr. Factor:,Height (mm):,Age (days):,Weight (kN):,Break Type:,Ramp Rate (MPa/s):,Load at Break (kN):,Stress at Break (MPa):
12,6/7/2021,03:27,Cylinder,100,1,200,0,3.6,3,0.24,373.84,47.6
Sample Time,Load (kN),Stress (MPa),Long. Strain,Trans. Strain,Chan1 Deflection (mm),Chan2 Deflection (mm)
0:0:21.086,6.92143,0.882529,0,0.000885,0,0
0:0:21.991,14.3099,1.82022,0,0.000885,0,0
0:0:22.894,13.6649,1.73748,0,0.000885,0,0
0:0:23.794,12.7264,1.62027,0,0.000885,0,0
0:0:24.682,12.5529,1.59958,0,0.000885,0,0
0:0:25.589,12.4328,1.58579,0,0.000885,0,0
0:0:26.492,15.3063,1.95122,0,0.000885,0,0
0:0:27.404,17.4771,2.22701,0,0.000885,0,0
0:0:28.306,19.4699,2.48211,0,0.000885,0,0
0:0:29.205,21.2314,2.70274,0,0.000885,0,0
0:0:30.103,23.5177,2.99232,0,0.000885,0,0
0:0:30.996,24.5764,3.13022,0,0.000885,0,0
0:0:31.898,26.6271,3.39222,0,0.000885,0,0
0:0:32.807,28.2106,3.59217,0,0.000885,0,0
0:0:33.709,30.3235,3.86106,0,0.000885,0,0
0:0:34.602,31.787,4.04722,0,0.000885,0,0
0:0:35.496,33.8421,4.30922,0,0.000885,0,0
0:0:36.394,35.3055,4.49538,0,0.000885,0,0
0:0:37.305,36.7156,4.67465,0,0.000885,0,0
0:0:38.207,39.0598,4.97112,0,0.000885,0,0
0:0:39.101,40.3498,5.13659,0,0.000885,0,0
0:0:39.999,42.4049,5.39859,0,0.000885,0,0
0:0:40.897,44.1619,5.62612,0,0.000885,0,0
0:0:41.799,45.9234,5.84675,0,0.000885,0,0
0:0:42.706,47.2713,6.01912,0,0.000885,0,0
0:0:43.605,49.0906,6.25354,0,0.000885,0,0
0:0:44.503,50.9677,6.48797,0,0.000885,0,0
0:0:45.397,53.5477,6.81891,0,0.000885,0,0
0:0:46.289,54.722,6.9706,0,0.000885,0,0
0:0:47.202,56.4791,7.19123,0,0.000885,0,0
0:0:48.110,58.2984,7.42565,0,0.000885,0,0
0:0:49.005,60.1177,7.65318,0,0.000885,0,0
0:0:49.898,62.1105,7.90829,0,0.000885,0,0
0:0:50.797,64.2813,8.18408,0,0.000885,0,0
0:0:51.693,65.0419,8.2806,0,0.000885,0,0
0:0:52.604,66.919,8.52192,0,0.000885,0,0
0:0:53.506,69.3255,8.82529,0,0.000885,0,0
0:0:54.405,70.789,9.01145,0,0.000885,0,0
0:0:55.300,72.3726,9.21829,0,0.000885,0,0
0:0:56.193,73.9561,9.41824,0,0.000885,0,0
0:0:57.105,76.069,9.68713,0,0.000885,0,0
0:0:58.011,77.7104,9.89398,0,0.000885,0,0
0:0:58.911,79.8233,10.1629,0,0.000885,0,0
0:0:59.805,80.8776,10.3008,0,0.000885,0,0
0:1:0.699,83.0483,10.5766,0,0.000885,0,0
0:1:1.601,84.752,10.7903,0,0.000885,0,0
0:1:2.512,86.7448,11.0454,0,0.000885,0,0
0:1:3.413,88.0926,11.2178,0,0.000885,0,0
0:1:4.307,90.6725,11.5418,0,0.000885,0,0
0:1:5.207,92.2561,11.7487,0,0.000885,0,0
0:1:6.103,93.6084,11.921,0,0.000885,0,0
0:1:7.005,94.8361,12.0727,0,0.000885,0,0
0:1:7.913,97.0646,12.3623,0,0.000885,0,0
0:1:8.812,99.3555,12.6519,0,0.000885,0,0
0:1:9.709,100.645,12.8174,0,0.000885,0,0
0:1:10.603,101.935,12.9759,0,0.000885,0,0
0:1:11.504,104.631,13.3207,0,0.000885,0,0
0:1:12.413,106.393,13.5482,0,0.000885,0,0
0:1:13.313,107.505,13.6861,0,0.000885,0,0
0:1:14.206,109.795,13.9826,0,0.000885,0,0
0:1:15.099,111.495,14.1963,0,0.000885,0,0
0:1:15.996,113.136,14.4031,0,0.000885,0,0
0:1:16.902,115.422,14.6996,0,0.000885,0,0
0:1:17.809,116.481,14.8306,0,0.000885,0,0
0:1:18.706,119.119,15.1685,0,0.000885,0,0
0:1:19.602,120.409,15.3339,0,0.000885,0,0
0:1:20.498,121.877,15.5201,0,0.000885,0,0
0:1:21.389,123.518,15.7269,0,0.000885,0,0
0:1:22.303,125.569,15.9889,0,0.000885,0,0
0:1:23.208,126.979,16.1682,0,0.000885,0,0
0:1:24.103,129.559,16.4992,0,0.000885,0,0
0:1:24.998,130.965,16.6784,0,0.000885,0,0
0:1:25.888,132.081,16.8163,0,0.000885,0,0
0:1:26.788,134.661,17.1473,0,0.000885,0,0
0:1:27.702,135.306,17.23,0,0.000885,0,0
0:1:28.602,138.122,17.5885,0,0.000885,0,0
0:1:29.497,139.941,17.8161,0,0.000885,0,0
0:1:30.403,141.289,17.9884,0,0.000885,0,0
0:1:31.299,143.05,18.2159,0,0.000885,0,0
0:1:32.210,144.865,18.4435,0,0.000885,0,0
0:1:33.109,146.275,18.6227,0,0.000885,0,0
0:1:34.006,148.677,18.933,0,0.000885,0,0
0:1:34.902,150.03,19.1054,0,0.000885,0,0
0:1:35.795,152.374,19.4018,0,0.000885,0,0
0:1:36.703,153.548,19.5535,0,0.000885,0,0
0:1:37.615,156.07,19.8707,0,0.000885,0,0
0:1:38.516,156.537,19.9327,0,0.000885,0,0
0:1:39.410,159.237,20.2775,0,0.000885,0,0
0:1:40.305,161.172,20.5188,0,0.000885,0,0
0:1:41.201,162.169,20.6498,0,0.000885,0,0
0:1:42.105,164.927,21.0014,0,0.000885,0,0
0:1:43.011,165.923,21.1255,0,0.000885,0,0
0:1:43.905,168.152,21.4082,0,0.000885,0,0
0:1:44.802,169.326,21.5599,0,0.000885,0,0
0:1:45.698,171.141,21.7874,0,0.000885,0,0
0:1:46.603,173.196,22.0494,0,0.000885,0,0
0:1:47.513,175.304,22.3183,0,0.000885,0,0
0:1:48.417,176.421,22.4631,0,0.000885,0,0
0:1:49.311,178.472,22.7251,0,0.000885,0,0
0:1:50.206,180.411,22.9733,0,0.000885,0,0
0:1:51.099,182.168,23.194,0,0.000885,0,0
0:1:52.011,183.93,23.4215,0,0.000885,0,0
0:1:52.919,185.162,23.5732,0,0.000885,0,0
0:1:53.813,186.803,23.7869,0,0.000885,0,0
0:1:54.707,188.796,24.0351,0,0.000885,0,0
0:1:55.599,191.024,24.3247,0,0.000885,0,0
0:1:56.501,193.253,24.6074,0,0.000885,0,0
0:1:57.405,194.307,24.7384,0,0.000885,0,0
0:1:58.301,196.656,25.0418,0,0.000885,0,0
0:1:59.185,197.537,25.1521,0,0.000885,0,0
0:2:0.076,200.059,25.4692,0,0.000885,0,0
0:2:0.973,201.464,25.6485,0,0.000885,0,0
0:2:1.873,202.519,25.7864,0,0.000885,0,0
0:2:2.775,205.161,26.1242,0,0.000885,0,0
0:2:3.664,205.979,26.2277,0,0.000885,0,0
0:2:4.556,208.679,26.5724,0,0.000885,0,0
0:2:5.445,210.436,26.793,0,0.000885,0,0
0:2:6.332,211.904,26.9792,0,0.000885,0,0
0:2:7.237,212.901,27.1102,0,0.000885,0,0
0:2:8.137,214.836,27.3515,0,0.000885,0,0
0:2:9.036,217.184,27.6549,0,0.000885,0,0
0:2:9.924,219.177,27.9031,0,0.000885,0,0
0:2:10.810,220.997,28.1375,0,0.000885,0,0
0:2:11.704,222.58,28.3375,0,0.000885,0,0
0:2:12.609,224.222,28.5512,0,0.000885,0,0
0:2:13.503,225.979,28.7718,0,0.000885,0,0
0:2:14.387,227.211,28.9304,0,0.000885,0,0
0:2:15.287,229.03,29.1579,0,0.000885,0,0
0:2:16.178,231.61,29.4889,0,0.000885,0,0
0:2:17.083,233.603,29.744,0,0.000885,0,0
0:2:17.974,234.661,29.875,0,0.000885,0,0
0:2:18.864,236.187,30.0749,0,0.000885,0,0
0:2:19.755,238.122,30.3162,0,0.000885,0,0
0:2:20.643,240.231,30.5851,0,0.000885,0,0
0:2:21.538,241.934,30.8058,0,0.000885,0,0
0:2:22.441,243.576,31.0126,0,0.000885,0,0
0:2:23.337,245.275,31.2264,0,0.000885,0,0
0:2:24.222,246.979,31.447,0,0.000885,0,0
0:2:25.110,249.674,31.7917,0,0.000885,0,0
0:2:26.001,250.026,31.8331,0,0.000885,0,0
0:2:26.901,252.49,32.1503,0,0.000885,0,0
0:2:27.802,254.251,32.3709,0,0.000885,0,0
0:2:28.699,255.893,32.5846,0,0.000885,0,0
0:2:29.601,257.419,32.7777,0,0.000885,0,0
0:2:30.499,259.354,33.019,0,0.000885,0,0
0:2:31.403,260.701,33.1914,0,0.000885,0,0
0:2:32.306,262.814,33.4603,0,0.000885,0,0
0:2:33.201,264.513,33.6809,0,0.000885,0,0
0:2:34.095,266.333,33.9084,0,0.000885,0,0
0:2:35.002,268.383,34.1704,0,0.000885,0,0
0:2:35.889,269.558,34.3221,0,0.000885,0,0
0:2:36.791,271.084,34.5152,0,0.000885,0,0
0:2:37.693,273.486,34.8185,0,0.000885,0,0
0:2:38.579,275.598,35.0874,0,0.000885,0,0
0:2:39.468,276.773,35.2391,0,0.000885,0,0
0:2:40.360,279.117,35.5356,0,0.000885,0,0
0:2:41.246,280.349,35.6942,0,0.000885,0,0
0:2:42.151,282.636,35.9837,0,0.000885,0,0
0:2:43.049,283.81,36.1354,0,0.000885,0,0
0:2:43.939,285.393,36.3354,0,0.000885,0,0
0:2:44.826,287.328,36.5836,0,0.000885,0,0
0:2:45.712,289.615,36.8732,0,0.000885,0,0
0:2:46.616,291.083,37.0593,0,0.000885,0,0
0:2:47.516,292.373,37.2248,0,0.000885,0,0
0:2:48.404,294.779,37.5351,0,0.000885,0,0
0:2:49.301,296.945,37.8108,0,0.000885,0,0
0:2:50.201,298.529,38.0108,0,0.000885,0,0
0:2:51.096,299.646,38.1487,0,0.000885,0,0
0:2:52.002,301.407,38.3762,0,0.000885,0,0
0:2:52.906,303.106,38.59,0,0.000885,0,0
0:2:53.808,305.157,38.852,0,0.000885,0,0
0:2:54.696,307.385,39.1346,0,0.000885,0,0
0:2:55.603,308.796,39.3139,0,0.000885,0,0
0:2:56.507,310.259,39.507,0,0.000885,0,0
0:2:57.411,312.256,39.7552,0,0.000885,0,0
0:2:58.303,313.72,39.9413,0,0.000885,0,0
0:2:59.197,315.659,40.1895,0,0.000885,0,0
0:3:0.085,317.358,40.4102,0,0.000885,0,0
0:3:0.976,319.236,40.6446,0,0.000885,0,0
0:3:1.881,320.993,40.8721,0,0.000885,0,0
0:3:2.772,322.99,41.1272,0,0.000885,0,0
0:3:3.661,325.04,41.3823,0,0.000885,0,0
0:3:4.551,326.157,41.5271,0,0.000885,0,0
0:3:5.438,327.389,41.6857,0,0.000885,0,0
0:3:6.333,329.675,41.9753,0,0.000885,0,0
0:3:7.235,331.023,42.1477,0,0.000885,0,0
0:3:8.130,333.545,42.4717,0,0.000885,0,0
0:3:9.016,335.48,42.713,0,0.000885,0,0
0:3:9.911,336.419,42.8371,0,0.000885,0,0
0:3:10.812,338.354,43.0784,0,0.000885,0,0
0:3:11.711,340.64,43.3749,0,0.000885,0,0
0:3:12.612,342.166,43.568,0,0.000885,0,0
0:3:13.509,343.514,43.7403,0,0.000885,0,0
0:3:14.396,345.453,43.9817,0,0.000885,0,0
0:3:15.284,347.446,44.2368,0,0.000885,0,0
0:3:16.180,348.736,44.4022,0,0.000885,0,0
0:3:17.081,350.787,44.6642,0,0.000885,0,0
0:3:17.984,352.37,44.8642,0,0.000885,0,0
0:3:18.872,354.247,45.1055,0,0.000885,0,0
0:3:19.759,356.303,45.3675,0,0.000885,0,0
0:3:20.647,357.593,45.533,0,0.000885,0,0
0:3:21.547,359.47,45.7674,0,0.000885,0,0
0:3:22.451,361.227,45.9949,0,0.000885,0,0
0:3:23.337,363.046,46.2225,0,0.000885,0,0
0:3:24.228,365.039,46.4776,0,0.000885,0,0
0:3:25.117,366.507,46.6637,0,0.000885,0,0
0:3:26.012,367.681,46.8154,0,0.000885,0,0
0:3:26.915,369.91,47.0981,0,0.000885,0,0
0:3:27.815,371.142,47.2567,0,0.000885,0,0
0:3:28.705,372.196,47.3877,0,0.000885,0,0
0:3:29.601,374.015,47.6221,0,0.000885,0,0
0:3:30.496,373.428,47.5462,0,0.000885,0,0
0:3:31.400,363.811,46.319,0,0.000885,0,0
0:3:32.302,342.402,43.5956,0,0.000885,0,0
0:3:33.196,315.01,40.1068,0,0.000885,0,0
0:3:34.112,284.984,36.2871,0,0.000885,0,0
0:3:34.594,263.753,33.5844,0,0.000885,0,0