File: DataFile2021-06-29_042543.csv
Test ID:,Date Tested:,Time:,Test Type:,Width (mm):,Depth (mm):,Height (mm):,Age (days):,Weight (kN):,Ramp Rate (MPa/s):,Load at Break (kN):,Stress at Break (MPa):
12,6/29/2021,04:25,Cube,150,150,150,7,8.37,0.01,74.72,3.32
Sample Time,Load (kN),Stress (MPa),Long. Strain,Trans. Strain,Chan1 Deflection (mm),Chan2 Deflection (mm)
0:0:10.105,9.32347,0.413685,0,0.000885,0,0
0:0:10.813,11.4942,0.510212,0,0.000885,0,0
0:0:11.514,11.6143,0.517107,0,0.000885,0,0
0:0:12.196,12.6107,0.558475,0,0.000885,0,0
0:0:12.904,15.075,0.668791,0,0.000885,0,0
0:0:13.619,16.4807,0.730844,0,0.000885,0,0
0:0:14.313,18.0064,0.799792,0,0.000885,0,0
0:0:15.007,19.7634,0.875634,0,0.000885,0,0
0:0:15.706,21.7607,0.965266,0,0.000885,0,0
0:0:16.406,23.6378,1.048,0,0.000885,0,0
0:0:17.102,24.9857,1.11006,0,0.000885,0,0
0:0:17.804,26.6849,1.1859,0,0.000885,0,0
0:0:18.512,28.2684,1.25485,0,0.000885,0,0
0:0:19.211,29.3271,1.30311,0,0.000885,0,0
0:0:19.914,31.3199,1.39274,0,0.000885,0,0
0:0:20.612,33.0191,1.46858,0,0.000885,0,0
0:0:21.312,34.4292,1.53064,0,0.000885,0,0
0:0:22.004,35.5991,1.5789,0,0.000885,0,0
0:0:22.704,37.3606,1.66164,0,0.000885,0,0
0:0:23.419,38.9442,1.73058,0,0.000885,0,0
0:0:24.117,41.1149,1.82711,0,0.000885,0,0
0:0:24.815,42.6407,1.89606,0,0.000885,0,0
0:0:25.513,43.8684,1.95122,0,0.000885,0,0
0:0:26.212,45.4519,2.02016,0,0.000885,0,0
0:0:26.903,46.9777,2.08911,0,0.000885,0,0
0:0:27.617,48.3299,2.15116,0,0.000885,0,0
0:0:28.305,49.8512,2.21322,0,0.000885,0,0
0:0:29.012,51.5549,2.28906,0,0.000885,0,0
0:0:29.716,53.3698,2.3718,0,0.000885,0,0
0:0:30.415,54.9533,2.44074,0,0.000885,0,0
0:0:31.112,56.012,2.48901,0,0.000885,0,0
0:0:31.804,57.947,2.57864,0,0.000885,0,0
0:0:32.516,59.6462,2.64759,0,0.000885,0,0
0:0:33.219,61.1719,2.71653,0,0.000885,0,0
0:0:33.917,62.6977,2.78548,0,0.000885,0,0
0:0:34.614,64.0455,2.84753,0,0.000885,0,0
0:0:35.315,65.6869,2.91648,0,0.000885,0,0
0:0:36.014,67.3906,2.99232,0,0.000885,0,0
0:0:36.708,68.4448,3.04059,0,0.000885,0,0
0:0:37.407,70.2641,3.12333,0,0.000885,0,0
0:0:38.105,71.4963,3.17848,0,0.000885,0,0
0:0:38.821,73.1377,3.24743,0,0.000885,0,0
0:0:39.516,73.9561,3.2888,0,0.000885,0,0
0:0:40.216,74.957,3.33017,0,0.000885,0,0
0:0:40.920,66.6255,2.95785,0,0.000885,0,0
0:0:41.619,67.097,2.98543,0,0.000885,0,0
0:0:42.314,61.0563,2.71653,0,0.000885,0,0
0:0:43.014,56.1277,2.4959,0,0.000885,0,0
0:0:43.718,51.2035,2.27527,0,0.000885,0,0
0:0:44.413,49.9713,2.22011,0,0.000885,0,0
0:0:45.115,48.6191,2.15806,0,0.000885,0,0
0:0:45.809,46.8042,2.08222,0,0.000885,0,0
0:0:46.503,44.8692,1.99258,0,0.000885,0,0
0:0:47.207,43.6371,1.93743,0,0.000885,0,0
0:0:47.916,44.5178,1.9788,0,0.000885,0,0
0:0:48.619,43.9306,1.95122,0,0.000885,0,0
0:0:49.320,43.6371,1.93743,0,0.000885,0,0
0:0:50.005,43.9885,1.95811,0,0.000885,0,0
0:0:50.714,44.7491,1.98569,0,0.000885,0,0
0:0:51.408,45.2784,2.01327,0,0.000885,0,0
0:0:52.101,45.8078,2.03395,0,0.000885,0,0
0:0:52.822,46.3327,2.06153,0,0.000885,0,0
0:0:53.518,46.9777,2.08911,0,0.000885,0,0
0:0:54.222,47.2713,2.1029,0,0.000885,0,0
0:0:54.915,48.152,2.13737,0,0.000885,0,0
0:0:55.621,48.152,2.13737,0,0.000885,0,0
0:0:56.318,48.6813,2.16495,0,0.000885,0,0
0:0:57.009,48.9126,2.17185,0,0.000885,0,0
0:0:57.718,49.6199,2.20632,0,0.000885,0,0
0:0:58.418,49.442,2.19943,0,0.000885,0,0
0:0:59.116,49.3842,2.19253,0,0.000885,0,0
0:0:59.807,49.7934,2.21322,0,0.000885,0,0
0:1:0.506,49.8512,2.21322,0,0.000885,0,0
0:1:1.203,50.4384,2.2408,0,0.000885,0,0
0:1:1.903,50.3806,2.2408,0,0.000885,0,0
0:1:2.617,50.5585,2.24769,0,0.000885,0,0
0:1:3.312,50.732,2.25459,0,0.000885,0,0
0:1:4.016,51.0255,2.26838,0,0.000885,0,0
0:1:4.707,51.2613,2.27527,0,0.000885,0,0
0:1:5.416,51.7862,2.30285,0,0.000885,0,0
0:1:6.110,51.7862,2.30285,0,0.000885,0,0
0:1:6.805,52.022,2.30974,0,0.000885,0,0
0:1:7.520,51.9063,2.30974,0,0.000885,0,0
0:1:8.223,52.1421,2.31664,0,0.000885,0,0
0:1:8.908,51.0834,2.26838,0,0.000885,0,0
0:1:9.620,50.732,2.25459,0,0.000885,0,0
0:1:10.324,50.732,2.25459,0,0.000885,0,0
0:1:11.020,50.9099,2.26148,0,0.000885,0,0
0:1:11.713,50.9099,2.26148,0,0.000885,0,0
0:1:12.422,51.2613,2.27527,0,0.000885,0,0
0:1:13.124,51.377,2.28216,0,0.000885,0,0
0:1:13.818,51.1412,2.27527,0,0.000885,0,0
0:1:14.511,51.3191,2.28216,0,0.000885,0,0
0:1:15.225,50.6163,2.24769,0,0.000885,0,0
0:1:15.918,50.3806,2.2408,0,0.000885,0,0
0:1:16.611,50.0291,2.22011,0,0.000885,0,0
0:1:17.321,50.1448,2.22701,0,0.000885,0,0
0:1:18.014,50.2026,2.2339,0,0.000885,0,0
0:1:18.720,50.7898,2.25459,0,0.000885,0,0
0:1:19.410,50.7898,2.25459,0,0.000885,0,0
0:1:20.118,51.3191,2.28216,0,0.000885,0,0
0:1:20.817,51.2613,2.27527,0,0.000885,0,0
0:1:21.512,51.4348,2.28906,0,0.000885,0,0
0:1:22.214,51.7284,2.29595,0,0.000885,0,0
0:1:22.919,51.9063,2.30974,0,0.000885,0,0
0:1:23.625,51.5549,2.28906,0,0.000885,0,0
0:1:24.326,51.0834,2.26838,0,0.000885,0,0
0:1:25.020,51.377,2.28216,0,0.000885,0,0
0:1:25.715,51.9063,2.30974,0,0.000885,0,0
0:1:26.412,51.6127,2.29595,0,0.000885,0,0
0:1:27.106,51.8485,2.30285,0,0.000885,0,0
0:1:27.823,51.6705,2.29595,0,0.000885,0,0
0:1:28.523,51.7284,2.29595,0,0.000885,0,0
0:1:29.220,51.7862,2.30285,0,0.000885,0,0
0:1:29.924,52.022,2.30974,0,0.000885,0,0
0:1:30.624,51.7284,2.29595,0,0.000885,0,0
0:1:31.319,51.9063,2.30974,0,0.000885,0,0
0:1:32.020,51.6127,2.29595,0,0.000885,0,0
0:1:32.720,51.5549,2.28906,0,0.000885,0,0
0:1:33.426,51.6127,2.29595,0,0.000885,0,0
0:1:34.109,51.377,2.28216,0,0.000885,0,0
0:1:34.824,50.9099,2.26148,0,0.000885,0,0
0:1:35.520,50.4962,2.24769,0,0.000885,0,0
0:1:36.215,50.6163,2.24769,0,0.000885,0,0
0:1:36.920,50.4962,2.24769,0,0.000885,0,0
0:1:37.614,50.5585,2.24769,0,0.000885,0,0
0:1:38.324,50.2026,2.2339,0,0.000885,0,0
0:1:39.021,49.7934,2.21322,0,0.000885,0,0
0:1:39.726,49.5576,2.19943,0,0.000885,0,0
0:1:40.415,49.3842,2.19253,0,0.000885,0,0
0:1:41.114,49.4998,2.19943,0,0.000885,0,0
0:1:41.807,49.442,2.19943,0,0.000885,0,0
0:1:42.512,49.6777,2.20632,0,0.000885,0,0
0:1:43.220,49.5576,2.19943,0,0.000885,0,0
0:1:43.922,49.6199,2.20632,0,0.000885,0,0
0:1:44.626,49.7356,2.21322,0,0.000885,0,0
0:1:45.324,49.6199,2.20632,0,0.000885,0,0
0:1:46.022,49.8512,2.21322,0,0.000885,0,0
0:1:46.712,49.8512,2.21322,0,0.000885,0,0
0:1:47.416,49.3263,2.19253,0,0.000885,0,0
0:1:48.120,49.4998,2.19943,0,0.000885,0,0
0:1:48.814,49.4998,2.19943,0,0.000885,0,0
0:1:49.528,49.3842,2.19253,0,0.000885,0,0
0:1:50.221,49.4998,2.19943,0,0.000885,0,0
0:1:50.917,49.6199,2.20632,0,0.000885,0,0
0:1:51.611,49.3263,2.19253,0,0.000885,0,0
0:1:52.307,49.3263,2.19253,0,0.000885,0,0
0:1:53.013,49.442,2.19943,0,0.000885,0,0
0:1:53.725,49.442,2.19943,0,0.000885,0,0
0:1:54.424,49.3842,2.19253,0,0.000885,0,0
0:1:55.126,48.9749,2.17874,0,0.000885,0,0
0:1:55.817,49.2062,2.18564,0,0.000885,0,0
0:1:56.512,49.2062,2.18564,0,0.000885,0,0
0:1:57.209,49.0327,2.17874,0,0.000885,0,0
0:1:57.926,49.0906,2.17874,0,0.000885,0,0
0:1:58.623,49.2062,2.18564,0,0.000885,0,0
0:1:59.324,49.7356,2.21322,0,0.000885,0,0
0:2:0.017,49.4998,2.19943,0,0.000885,0,0
0:2:0.724,49.8512,2.21322,0,0.000885,0,0
0:2:1.423,49.4998,2.19943,0,0.000885,0,0
0:2:2.115,49.1484,2.18564,0,0.000885,0,0
0:2:2.816,49.1484,2.18564,0,0.000885,0,0
0:2:3.524,49.442,2.19943,0,0.000885,0,0
0:2:4.229,49.5576,2.19943,0,0.000885,0,0
0:2:4.930,49.1484,2.18564,0,0.000885,0,0
0:2:5.627,48.9749,2.17874,0,0.000885,0,0
0:2:6.325,48.5034,2.15806,0,0.000885,0,0
0:2:7.028,48.0942,2.13737,0,0.000885,0,0
0:2:7.725,48.0363,2.13737,0,0.000885,0,0
0:2:8.425,47.8584,2.13048,0,0.000885,0,0
0:2:9.119,47.5648,2.11669,0,0.000885,0,0
0:2:9.825,47.7428,2.12359,0,0.000885,0,0
0:2:10.527,47.8006,2.12359,0,0.000885,0,0
0:2:11.224,45.7455,2.03395,0,0.000885,0,0
0:2:11.916,43.4591,1.93053,0,0.000885,0,0
0:2:12.627,42.6985,1.89606,0,0.000885,0,0
0:2:13.330,42.5206,1.88916,0,0.000885,0,0
0:2:14.030,42.5784,1.88916,0,0.000885,0,0
0:2:14.730,42.4627,1.88916,0,0.000885,0,0
0:2:15.425,42.3471,1.88227,0,0.000885,0,0
0:2:16.124,41.7021,1.85469,0,0.000885,0,0
0:2:16.814,41.8756,1.86158,0,0.000885,0,0
0:2:17.526,41.7599,1.85469,0,0.000885,0,0
0:2:18.232,41.6398,1.84779,0,0.000885,0,0
0:2:18.915,41.1727,1.82711,0,0.000885,0,0
0:2:19.627,41.1149,1.82711,0,0.000885,0,0
0:2:20.326,40.8213,1.81332,0,0.000885,0,0
0:2:21.024,40.5856,1.80643,0,0.000885,0,0
0:2:21.715,40.2342,1.78574,0,0.000885,0,0
0:2:22.424,40.292,1.79264,0,0.000885,0,0
0:2:23.125,40.1763,1.78574,0,0.000885,0,0
0:2:23.831,39.7048,1.76506,0,0.000885,0,0
0:2:24.524,39.9406,1.77195,0,0.000885,0,0
0:2:25.226,39.7048,1.76506,0,0.000885,0,0
0:2:25.921,39.5892,1.75816,0,0.000885,0,0
0:2:26.614,39.9406,1.77195,0,0.000885,0,0
0:2:27.320,39.9984,1.77885,0,0.000885,0,0
0:2:28.028,39.4112,1.75127,0,0.000885,0,0
0:2:28.729,39.8249,1.77195,0,0.000885,0,0
0:2:29.420,39.7671,1.76506,0,0.000885,0,0
0:2:30.116,39.2956,1.74437,0,0.000885,0,0
0:2:30.804,39.4735,1.75127,0,0.000885,0,0
0:2:31.501,39.2378,1.74437,0,0.000885,0,0
0:2:32.193,38.8285,1.72369,0,0.000885,0,0
0:2:32.875,38.5928,1.71679,0,0.000885,0,0
0:2:33.570,38.4727,1.7099,0,0.000885,0,0
0:2:34.255,38.1213,1.69611,0,0.000885,0,0
0:2:34.879,37.712,1.67543,0,0.000885,0,0