File: DataFile2021-06-08_055033.csv
Test ID:,Date Tested:,Time:,Test Type:,Diameter Avg. (mm):,Cyl. Corr. Factor:,Height (mm):,Age (days):,Weight (kN):,Break Type:,Ramp Rate (MPa/s):,Load at Break (kN):,Stress at Break (MPa):
12,6/8/2021,05:50,Cylinder,150,1,300,0,3.6,6,0.24,769.17,43.53
Sample Time,Load (kN),Stress (MPa),Long. Strain,Trans. Strain,Chan1 Deflection (mm),Chan2 Deflection (mm)
0:0:8.999,9.09216,0.517107,0,0.000885,0,0
0:0:9.800,15.6577,0.889424,0,0.000885,0,0
0:0:10.604,14.7192,0.834266,0,0.000885,0,0
0:0:11.396,15.4843,0.875634,0,0.000885,0,0
0:0:12.200,18.2422,1.03421,0,0.000885,0,0
0:0:12.995,23.2242,1.3169,0,0.000885,0,0
0:0:13.802,27.917,1.5789,0,0.000885,0,0
0:0:14.602,29.9098,1.68922,0,0.000885,0,0
0:0:15.414,33.1393,1.87537,0,0.000885,0,0
0:0:16.220,37.1249,2.1029,0,0.000885,0,0
0:0:17.016,40.9948,2.31664,0,0.000885,0,0
0:0:17.812,43.9306,2.48901,0,0.000885,0,0
0:0:18.608,47.5648,2.68896,0,0.000885,0,0
0:0:19.409,51.6127,2.92338,0,0.000885,0,0
0:0:20.220,55.1313,3.11643,0,0.000885,0,0
0:0:21.020,58.2984,3.29569,0,0.000885,0,0
0:0:21.820,61.7013,3.48875,0,0.000885,0,0
0:0:22.613,65.8648,3.73006,0,0.000885,0,0
0:0:23.414,69.6191,3.93691,0,0.000885,0,0
0:0:24.208,72.1413,4.0817,0,0.000885,0,0
0:0:25.020,76.1269,4.30922,0,0.000885,0,0
0:0:25.829,79.294,4.48849,0,0.000885,0,0
0:0:26.624,83.0483,4.70222,0,0.000885,0,0
0:0:27.423,86.9183,4.91596,0,0.000885,0,0
0:0:28.217,89.3826,5.06075,0,0.000885,0,0
0:0:29.016,93.5461,5.29517,0,0.000885,0,0
0:0:29.820,97.7096,5.5296,0,0.000885,0,0
0:0:30.629,100.761,5.70196,0,0.000885,0,0
0:0:31.427,104.4,5.90881,0,0.000885,0,0
0:0:32.224,108.328,6.12944,0,0.000885,0,0
0:0:33.020,111.317,6.30181,0,0.000885,0,0
0:0:33.816,114.84,6.50176,0,0.000885,0,0
0:0:34.624,118.416,6.7017,0,0.000885,0,0
0:0:35.433,121.525,6.87407,0,0.000885,0,0
0:0:36.234,125.217,7.08781,0,0.000885,0,0
0:0:37.026,128.972,7.30155,0,0.000885,0,0
0:0:37.826,132.375,7.48771,0,0.000885,0,0
0:0:38.620,136.302,7.71523,0,0.000885,0,0
0:0:39.421,139.763,7.90829,0,0.000885,0,0
0:0:40.233,143.869,8.14271,0,0.000885,0,0
0:0:41.035,147.445,8.34266,0,0.000885,0,0
0:0:41.834,149.852,8.48055,0,0.000885,0,0
0:0:42.628,153.664,8.69429,0,0.000885,0,0
0:0:43.428,157.654,8.92182,0,0.000885,0,0
0:0:44.220,160.701,9.09418,0,0.000885,0,0
0:0:45.032,164.046,9.28034,0,0.000885,0,0
0:0:45.840,167.68,9.48719,0,0.000885,0,0
0:0:46.637,171.141,9.68713,0,0.000885,0,0
0:0:47.436,175.54,9.93535,0,0.000885,0,0
0:0:48.231,179.117,10.1353,0,0.000885,0,0
0:0:49.028,182.226,10.3146,0,0.000885,0,0
0:0:49.833,185.744,10.5145,0,0.000885,0,0
0:0:50.641,189.032,10.6938,0,0.000885,0,0
0:0:51.443,192.43,10.8868,0,0.000885,0,0
0:0:52.231,196.069,11.0937,0,0.000885,0,0
0:0:53.027,199.823,11.3074,0,0.000885,0,0
0:0:53.815,203.577,11.5211,0,0.000885,0,0
0:0:54.608,207.096,11.7211,0,0.000885,0,0
0:0:55.413,210.379,11.9072,0,0.000885,0,0
0:0:56.211,214.191,12.121,0,0.000885,0,0
0:0:57.000,217.358,12.3002,0,0.000885,0,0
0:0:57.788,221.348,12.5278,0,0.000885,0,0
0:0:58.583,224.689,12.7139,0,0.000885,0,0
0:0:59.391,227.331,12.8656,0,0.000885,0,0
0:1:0.196,230.498,13.0449,0,0.000885,0,0
0:1:0.999,234.426,13.2655,0,0.000885,0,0
0:1:1.789,238.709,13.5068,0,0.000885,0,0
0:1:2.593,242.228,13.7068,0,0.000885,0,0
0:1:3.379,246.04,13.9205,0,0.000885,0,0
0:1:4.192,249.852,14.1411,0,0.000885,0,0
0:1:4.992,252.196,14.2721,0,0.000885,0,0
0:1:5.793,255.835,14.479,0,0.000885,0,0
0:1:6.609,259.411,14.6789,0,0.000885,0,0
0:1:7.396,263.459,14.9065,0,0.000885,0,0
0:1:8.189,267.271,15.1271,0,0.000885,0,0
0:1:8.976,270.145,15.2857,0,0.000885,0,0
0:1:9.782,273.192,15.458,0,0.000885,0,0
0:1:10.580,276.888,15.6718,0,0.000885,0,0
0:1:11.374,281.11,15.9062,0,0.000885,0,0
0:1:12.164,284.103,16.0786,0,0.000885,0,0
0:1:12.955,288.031,16.2992,0,0.000885,0,0
0:1:13.746,291.141,16.4785,0,0.000885,0,0
0:1:14.541,294.366,16.6577,0,0.000885,0,0
0:1:15.347,298.24,16.8784,0,0.000885,0,0
0:1:16.143,301.932,17.0852,0,0.000885,0,0
0:1:16.936,305.571,17.2921,0,0.000885,0,0
0:1:17.721,309.031,17.4851,0,0.000885,0,0
0:1:18.517,312.723,17.6988,0,0.000885,0,0
0:1:19.314,316.304,17.8988,0,0.000885,0,0
0:1:20.119,319.76,18.0918,0,0.000885,0,0
0:1:20.920,323.283,18.2918,0,0.000885,0,0
0:1:21.711,326.215,18.4573,0,0.000885,0,0
0:1:22.510,329.675,18.6572,0,0.000885,0,0
0:1:23.307,333.252,18.8572,0,0.000885,0,0
0:1:24.110,337.006,19.0709,0,0.000885,0,0
0:1:24.914,340.231,19.2502,0,0.000885,0,0
0:1:25.717,344.043,19.4708,0,0.000885,0,0
0:1:26.513,347.446,19.6638,0,0.000885,0,0
0:1:27.307,351.432,19.8845,0,0.000885,0,0
0:1:28.115,354.835,20.0775,0,0.000885,0,0
0:1:28.903,358.06,20.2637,0,0.000885,0,0
0:1:29.716,362.637,20.5188,0,0.000885,0,0
0:1:30.518,364.923,20.6498,0,0.000885,0,0
0:1:31.314,368.268,20.8429,0,0.000885,0,0
0:1:32.111,372.374,21.0704,0,0.000885,0,0
0:1:32.914,376.124,21.2841,0,0.000885,0,0
0:1:33.712,379.353,21.4703,0,0.000885,0,0
0:1:34.504,382.752,21.6564,0,0.000885,0,0
0:1:35.314,386.857,21.8909,0,0.000885,0,0
0:1:36.113,390.496,22.0977,0,0.000885,0,0
0:1:36.900,394.072,22.2976,0,0.000885,0,0
0:1:37.690,397.417,22.4907,0,0.000885,0,0
0:1:38.500,400.464,22.6631,0,0.000885,0,0
0:1:39.294,404.219,22.8768,0,0.000885,0,0
0:1:40.098,407.795,23.0768,0,0.000885,0,0
0:1:40.891,411.376,23.2767,0,0.000885,0,0
0:1:41.683,415.01,23.4835,0,0.000885,0,0
0:1:42.470,417.826,23.6421,0,0.000885,0,0
0:1:43.266,421.638,23.8628,0,0.000885,0,0
0:1:44.054,425.802,24.0972,0,0.000885,0,0
0:1:44.860,429.147,24.2833,0,0.000885,0,0
0:1:45.662,432.487,24.4764,0,0.000885,0,0
0:1:46.453,435.654,24.6557,0,0.000885,0,0
0:1:47.245,439.587,24.8763,0,0.000885,0,0
0:1:48.032,443.279,25.0831,0,0.000885,0,0
0:1:48.827,446.388,25.2624,0,0.000885,0,0
0:1:49.623,450.142,25.4761,0,0.000885,0,0
0:1:50.427,453.545,25.6623,0,0.000885,0,0
0:1:51.220,456.654,25.8416,0,0.000885,0,0
0:1:52.014,460.991,26.0898,0,0.000885,0,0
0:1:52.812,463.749,26.2414,0,0.000885,0,0
0:1:53.612,467.326,26.4483,0,0.000885,0,0
0:1:54.411,470.377,26.6207,0,0.000885,0,0
0:1:55.213,474.011,26.8206,0,0.000885,0,0
0:1:56.019,478.117,27.055,0,0.000885,0,0
0:1:56.816,481.347,27.2412,0,0.000885,0,0
0:1:57.610,485.274,27.4618,0,0.000885,0,0
0:1:58.417,488.619,27.648,0,0.000885,0,0
0:1:59.213,491.96,27.841,0,0.000885,0,0
0:2:0.018,496.123,28.0755,0,0.000885,0,0
0:2:0.816,499.762,28.2823,0,0.000885,0,0
0:2:1.617,502.809,28.4547,0,0.000885,0,0
0:2:2.416,505.861,28.627,0,0.000885,0,0
0:2:3.219,509.557,28.8339,0,0.000885,0,0
0:2:4.014,513.133,29.0407,0,0.000885,0,0
0:2:4.818,517.061,29.2613,0,0.000885,0,0
0:2:5.620,520.349,29.4475,0,0.000885,0,0
0:2:6.415,523.925,29.6475,0,0.000885,0,0
0:2:7.212,526.976,29.8198,0,0.000885,0,0
0:2:8.014,531.082,30.0542,0,0.000885,0,0
0:2:8.814,535.361,30.2956,0,0.000885,0,0
0:2:9.618,538.644,30.4817,0,0.000885,0,0
0:2:10.420,541.873,30.661,0,0.000885,0,0
0:2:11.217,544.627,30.8196,0,0.000885,0,0
0:2:12.011,547.972,31.0057,0,0.000885,0,0
0:2:12.818,551.9,31.2333,0,0.000885,0,0
0:2:13.620,555.948,31.4608,0,0.000885,0,0
0:2:14.420,559.586,31.6676,0,0.000885,0,0
0:2:15.223,563.456,31.8883,0,0.000885,0,0
0:2:16.016,566.388,32.0537,0,0.000885,0,0
0:2:16.813,569.67,32.2399,0,0.000885,0,0
0:2:17.619,573.545,32.4536,0,0.000885,0,0
0:2:18.417,577.063,32.6536,0,0.000885,0,0
0:2:19.220,581.169,32.888,0,0.000885,0,0
0:2:20.025,584.336,33.0673,0,0.000885,0,0
0:2:20.823,588.322,33.2948,0,0.000885,0,0
0:2:21.617,590.902,33.4396,0,0.000885,0,0
0:2:22.406,594.309,33.6326,0,0.000885,0,0
0:2:23.214,598.126,33.8464,0,0.000885,0,0
0:2:24.017,601.702,34.0463,0,0.000885,0,0
0:2:24.824,605.519,34.2669,0,0.000885,0,0
0:2:25.631,608.748,34.4462,0,0.000885,0,0
0:2:26.423,612.035,34.6324,0,0.000885,0,0
0:2:27.222,616.261,34.8737,0,0.000885,0,0
0:2:28.014,620.135,35.0943,0,0.000885,0,0
0:2:28.819,623.071,35.2598,0,0.000885,0,0
0:2:29.620,626.532,35.4528,0,0.000885,0,0
0:2:30.427,629.588,35.6252,0,0.000885,0,0
0:2:31.228,633.4,35.8458,0,0.000885,0,0
0:2:32.018,637.159,36.0527,0,0.000885,0,0
0:2:32.816,640.975,36.2733,0,0.000885,0,0
0:2:33.616,644.263,36.4595,0,0.000885,0,0
0:2:34.417,647.372,36.6318,0,0.000885,0,0
0:2:35.225,651.304,36.8594,0,0.000885,0,0
0:2:36.025,655.121,37.0731,0,0.000885,0,0
0:2:36.824,658.644,37.2731,0,0.000885,0,0
0:2:37.611,661.637,37.4385,0,0.000885,0,0
0:2:38.422,665.627,37.6661,0,0.000885,0,0
0:2:39.223,669.853,37.9074,0,0.000885,0,0
0:2:40.033,672.495,38.0522,0,0.000885,0,0
0:2:40.838,675.783,38.2383,0,0.000885,0,0
0:2:41.632,679.186,38.4314,0,0.000885,0,0
0:2:42.428,683.18,38.6589,0,0.000885,0,0
0:2:43.218,686.583,38.852,0,0.000885,0,0
0:2:44.017,689.755,39.0312,0,0.000885,0,0
0:2:44.827,693.1,39.2243,0,0.000885,0,0
0:2:45.631,697.21,39.4518,0,0.000885,0,0
0:2:46.423,700.497,39.638,0,0.000885,0,0
0:2:47.217,704.896,39.8862,0,0.000885,0,0
0:2:48.021,708.01,40.0654,0,0.000885,0,0
0:2:48.823,711.297,40.2516,0,0.000885,0,0
0:2:49.633,715.172,40.4722,0,0.000885,0,0
0:2:50.438,718.81,40.6791,0,0.000885,0,0
0:2:51.235,722.213,40.8721,0,0.000885,0,0
0:2:52.024,724.798,41.0169,0,0.000885,0,0
0:2:52.822,728.672,41.2375,0,0.000885,0,0
0:2:53.624,731.897,41.4168,0,0.000885,0,0
0:2:54.421,735.478,41.6168,0,0.000885,0,0
0:2:55.231,739.237,41.8305,0,0.000885,0,0
0:2:56.033,742.933,42.0442,0,0.000885,0,0
0:2:56.830,746.514,42.2442,0,0.000885,0,0
0:2:57.619,750.037,42.4441,0,0.000885,0,0
0:2:58.427,753.733,42.651,0,0.000885,0,0
0:2:59.217,756.318,42.7958,0,0.000885,0,0
0:3:0.027,759.899,43.0026,0,0.000885,0,0
0:3:0.832,763.07,43.1819,0,0.000885,0,0
0:3:1.627,765.592,43.3267,0,0.000885,0,0
0:3:2.421,768.644,43.499,0,0.000885,0,0
0:3:3.223,769.582,43.5473,0,0.000885,0,0
0:3:4.018,767.821,43.4508,0,0.000885,0,0
0:3:4.824,737.297,41.7202,0,0.000885,0,0
0:3:5.447,631.465,35.7355,0,0.000885,0,0