File: DataFile2021-07-03_080507.csv
Test ID:,Date Tested:,Time:,Test Type:,Diameter Avg. (mm):,Cyl. Corr. Factor:,Height (mm):,Age (days):,Weight (kN):,Break Type:,Ramp Rate (MPa/s):,Load at Break (kN):,Stress at Break (MPa):
12,7/3/2021,08:05,Cylinder,100,1,200,0,3.6,3,0.25,607.16,77.3
Sample Time,Load (kN),Stress (MPa),Long. Strain,Trans. Strain,Chan1 Deflection (mm),Chan2 Deflection (mm)
0:0:17.087,5.10211,0.648107,0,0.000885,0,0
0:0:18.476,9.73716,1.24106,0,0.000885,0,0
0:0:19.866,10.7336,1.36516,0,0.000885,0,0
0:0:21.256,13.4292,1.7099,0,0.000885,0,0
0:0:22.677,15.72,1.99948,0,0.000885,0,0
0:0:24.083,18.4156,2.34422,0,0.000885,0,0
0:0:25.478,21.6406,2.7579,0,0.000885,0,0
0:0:26.872,24.0471,3.06127,0,0.000885,0,0
0:0:28.280,28.1528,3.58527,0,0.000885,0,0
0:0:29.678,30.2657,3.85417,0,0.000885,0,0
0:0:31.070,33.3127,4.24028,0,0.000885,0,0
0:0:32.463,35.4256,4.50917,0,0.000885,0,0
0:0:33.879,38.1213,4.85391,0,0.000885,0,0
0:0:35.272,40.9948,5.21933,0,0.000885,0,0
0:0:36.669,43.9306,5.59165,0,0.000885,0,0
0:0:38.069,46.3327,5.90191,0,0.000885,0,0
0:0:39.475,49.2062,6.26733,0,0.000885,0,0
0:0:40.869,51.8485,6.59828,0,0.000885,0,0
0:0:42.273,54.8377,6.98439,0,0.000885,0,0
0:0:43.687,57.4176,7.30844,0,0.000885,0,0
0:0:45.078,59.9398,7.6325,0,0.000885,0,0
0:0:46.475,62.8712,8.00481,0,0.000885,0,0
0:0:47.873,65.3355,8.32197,0,0.000885,0,0
0:0:49.281,68.5026,8.72187,0,0.000885,0,0
0:0:50.676,71.0826,9.05282,0,0.000885,0,0
0:0:52.071,74.312,9.45961,0,0.000885,0,0
0:0:53.477,75.9534,9.67334,0,0.000885,0,0
0:0:54.878,79.6454,10.1422,0,0.000885,0,0
0:0:56.272,82.0519,10.4456,0,0.000885,0,0
0:0:57.672,84.8098,10.7972,0,0.000885,0,0
0:0:59.078,87.6255,11.1557,0,0.000885,0,0
0:1:0.471,90.4412,11.5142,0,0.000885,0,0
0:1:1.867,93.3726,11.8866,0,0.000885,0,0
0:1:3.286,95.7168,12.1899,0,0.000885,0,0
0:1:4.686,98.5326,12.5485,0,0.000885,0,0
0:1:6.079,101.464,12.9208,0,0.000885,0,0
0:1:7.477,104.222,13.2724,0,0.000885,0,0
0:1:8.891,106.86,13.6034,0,0.000885,0,0
0:1:10.283,109.208,13.9067,0,0.000885,0,0
0:1:11.673,112.491,14.3204,0,0.000885,0,0
0:1:13.083,115.365,14.6858,0,0.000885,0,0
0:1:14.490,117.651,14.9823,0,0.000885,0,0
0:1:15.880,120.88,15.3891,0,0.000885,0,0
0:1:17.272,123.167,15.6787,0,0.000885,0,0
0:1:18.687,125.862,16.0234,0,0.000885,0,0
0:1:20.084,128.678,16.3819,0,0.000885,0,0
0:1:21.477,132.081,16.8163,0,0.000885,0,0
0:1:22.875,133.958,17.0576,0,0.000885,0,0
0:1:24.288,137.01,17.4437,0,0.000885,0,0
0:1:25.682,139.941,17.8161,0,0.000885,0,0
0:1:27.072,142.815,18.1815,0,0.000885,0,0
0:1:28.487,145.217,18.4917,0,0.000885,0,0
0:1:29.881,148.095,18.8572,0,0.000885,0,0
0:1:31.275,150.968,19.2226,0,0.000885,0,0
0:1:32.676,153.49,19.5397,0,0.000885,0,0
0:1:34.082,156.186,19.8845,0,0.000885,0,0
0:1:35.477,159.06,20.2499,0,0.000885,0,0
0:1:36.869,161.991,20.6222,0,0.000885,0,0
0:1:38.286,164.282,20.9187,0,0.000885,0,0
0:1:39.689,167.329,21.3048,0,0.000885,0,0
0:1:41.081,170.144,21.6633,0,0.000885,0,0
0:1:42.470,172.551,21.9667,0,0.000885,0,0
0:1:43.884,175.54,22.3528,0,0.000885,0,0
0:1:45.283,178.943,22.7803,0,0.000885,0,0
0:1:46.671,181.114,23.063,0,0.000885,0,0
0:1:48.088,183.516,23.3663,0,0.000885,0,0
0:1:49.492,186.158,23.7042,0,0.000885,0,0
0:1:50.887,189.263,24.0972,0,0.000885,0,0
0:1:52.276,192.079,24.4557,0,0.000885,0,0
0:1:53.683,194.543,24.7729,0,0.000885,0,0
0:1:55.071,197.359,25.1314,0,0.000885,0,0
0:1:56.472,200.584,25.5382,0,0.000885,0,0
0:1:57.877,202.639,25.8002,0,0.000885,0,0
0:1:59.279,206.037,26.2346,0,0.000885,0,0
0:2:0.673,208.737,26.5793,0,0.000885,0,0
0:2:2.073,211.202,26.8896,0,0.000885,0,0
0:2:3.477,213.955,27.2412,0,0.000885,0,0
0:2:4.871,216.597,27.579,0,0.000885,0,0
0:2:6.273,219.822,27.9858,0,0.000885,0,0
0:2:7.674,222.58,28.3375,0,0.000885,0,0
0:2:9.072,225.218,28.6753,0,0.000885,0,0
0:2:10.475,228.091,29.0407,0,0.000885,0,0
0:2:11.874,230.729,29.3786,0,0.000885,0,0
0:2:13.271,233.314,29.7095,0,0.000885,0,0
0:2:14.674,236.245,30.0818,0,0.000885,0,0
0:2:16.077,238.998,30.4335,0,0.000885,0,0
0:2:17.464,241.641,30.7644,0,0.000885,0,0
0:2:18.872,244.514,31.1298,0,0.000885,0,0
0:2:20.271,247.036,31.4539,0,0.000885,0,0
0:2:21.666,250.204,31.8538,0,0.000885,0,0
0:2:23.075,252.254,32.1158,0,0.000885,0,0
0:2:24.466,254.839,32.4467,0,0.000885,0,0
0:2:25.867,258.001,32.8466,0,0.000885,0,0
0:2:27.267,260.937,33.2258,0,0.000885,0,0
0:2:28.676,264.046,33.6188,0,0.000885,0,0
0:2:30.080,265.981,33.867,0,0.000885,0,0
0:2:31.474,268.619,34.2049,0,0.000885,0,0
0:2:32.876,271.902,34.6186,0,0.000885,0,0
0:2:34.272,274.776,34.984,0,0.000885,0,0
0:2:35.675,277.591,35.3425,0,0.000885,0,0
0:2:37.079,279.882,35.6321,0,0.000885,0,0
0:2:38.478,282.756,36.0044,0,0.000885,0,0
0:2:39.876,285.803,36.3905,0,0.000885,0,0
0:2:41.269,288.383,36.7215,0,0.000885,0,0
0:2:42.675,290.967,37.0455,0,0.000885,0,0
0:2:44.081,293.956,37.4247,0,0.000885,0,0
0:2:45.469,296.714,37.7764,0,0.000885,0,0
0:2:46.876,299.058,38.0797,0,0.000885,0,0
0:2:48.275,302.226,38.4796,0,0.000885,0,0
0:2:49.674,304.926,38.8244,0,0.000885,0,0
0:2:51.076,307.448,39.1484,0,0.000885,0,0
0:2:52.471,310.846,39.5759,0,0.000885,0,0
0:2:53.874,312.608,39.8034,0,0.000885,0,0
0:2:55.262,315.597,40.1826,0,0.000885,0,0
0:2:56.674,318.47,40.5481,0,0.000885,0,0
0:2:58.082,320.993,40.8721,0,0.000885,0,0
0:2:59.476,323.808,41.2306,0,0.000885,0,0
0:3:0.877,326.74,41.603,0,0.000885,0,0
0:3:2.267,329.849,41.996,0,0.000885,0,0
0:3:3.670,332.198,42.2993,0,0.000885,0,0
0:3:5.068,334.6,42.6027,0,0.000885,0,0
0:3:6.478,337.887,43.0233,0,0.000885,0,0
0:3:7.877,340.992,43.4163,0,0.000885,0,0
0:3:9.282,343.807,43.7748,0,0.000885,0,0
0:3:10.681,345.511,43.9886,0,0.000885,0,0
0:3:12.067,348.852,44.416,0,0.000885,0,0
0:3:13.473,351.725,44.7814,0,0.000885,0,0
0:3:14.882,354.247,45.1055,0,0.000885,0,0
0:3:16.280,357.477,45.5123,0,0.000885,0,0
0:3:17.674,359.412,45.7605,0,0.000885,0,0
0:3:19.081,363.046,46.2225,0,0.000885,0,0
0:3:20.480,365.568,46.5465,0,0.000885,0,0
0:3:21.880,367.623,46.8085,0,0.000885,0,0
0:3:23.279,370.906,47.2222,0,0.000885,0,0
0:3:24.683,373.544,47.56,0,0.000885,0,0
0:3:26.085,376.008,47.8772,0,0.000885,0,0
0:3:27.483,378.882,48.2426,0,0.000885,0,0
0:3:28.885,381.933,48.6287,0,0.000885,0,0
0:3:30.286,385.043,49.0217,0,0.000885,0,0
0:3:31.672,386.8,49.2493,0,0.000885,0,0
0:3:33.083,389.909,49.6423,0,0.000885,0,0
0:3:34.473,392.604,49.987,0,0.000885,0,0
0:3:35.880,395.247,50.3248,0,0.000885,0,0
0:3:37.268,398.587,50.7523,0,0.000885,0,0
0:3:38.672,400.522,50.9936,0,0.000885,0,0
0:3:40.081,404.103,51.4487,0,0.000885,0,0
0:3:41.472,406.154,51.7107,0,0.000885,0,0
0:3:42.881,408.796,52.0485,0,0.000885,0,0
0:3:44.277,411.963,52.4553,0,0.000885,0,0
0:3:45.683,414.774,52.8138,0,0.000885,0,0
0:3:47.075,417.768,53.1931,0,0.000885,0,0
0:3:48.484,420.054,53.4826,0,0.000885,0,0
0:3:49.870,423.048,53.8618,0,0.000885,0,0
0:3:51.284,425.099,54.1238,0,0.000885,0,0
0:3:52.669,428.675,54.5789,0,0.000885,0,0
0:3:54.073,431.375,54.9236,0,0.000885,0,0
0:3:55.465,434.133,55.2753,0,0.000885,0,0
0:3:56.877,436.477,55.5717,0,0.000885,0,0
0:3:58.282,439.818,55.9992,0,0.000885,0,0
0:3:59.678,442.812,56.3784,0,0.000885,0,0
0:4:1.078,445.334,56.7025,0,0.000885,0,0
0:4:2.488,447.856,57.0196,0,0.000885,0,0
0:4:3.894,450.729,57.392,0,0.000885,0,0
0:4:5.285,453.194,57.7022,0,0.000885,0,0
0:4:6.676,455.832,58.0401,0,0.000885,0,0
0:4:8.073,458.821,58.4193,0,0.000885,0,0
0:4:9.478,461.814,58.7985,0,0.000885,0,0
0:4:10.870,463.807,59.0536,0,0.000885,0,0
0:4:12.274,466.859,59.4397,0,0.000885,0,0
0:4:13.677,469.906,59.8327,0,0.000885,0,0
0:4:15.087,472.428,60.1499,0,0.000885,0,0
0:4:16.476,475.07,60.4877,0,0.000885,0,0
0:4:17.887,478.001,60.86,0,0.000885,0,0
0:4:19.278,480.639,61.1979,0,0.000885,0,0
0:4:20.690,483.691,61.584,0,0.000885,0,0
0:4:22.083,485.804,61.8529,0,0.000885,0,0
0:4:23.486,489.086,62.2734,0,0.000885,0,0
0:4:24.873,491.786,62.6182,0,0.000885,0,0
0:4:26.279,493.953,62.894,0,0.000885,0,0
0:4:27.689,497.062,63.287,0,0.000885,0,0
0:4:29.094,500.581,63.7351,0,0.000885,0,0
0:4:30.485,502.516,63.9833,0,0.000885,0,0
0:4:31.875,505.389,64.3488,0,0.000885,0,0
0:4:33.273,507.911,64.6728,0,0.000885,0,0
0:4:34.668,510.789,65.0382,0,0.000885,0,0
0:4:36.088,513.543,65.383,0,0.000885,0,0
0:4:37.474,516.243,65.7277,0,0.000885,0,0
0:4:38.879,519.059,66.0862,0,0.000885,0,0
0:4:40.270,521.581,66.4103,0,0.000885,0,0
0:4:41.681,524.512,66.7826,0,0.000885,0,0
0:4:43.089,527.15,67.1205,0,0.000885,0,0
0:4:44.485,530.201,67.5066,0,0.000885,0,0
0:4:45.883,533.017,67.8651,0,0.000885,0,0
0:4:47.278,535.068,68.1271,0,0.000885,0,0
0:4:48.680,537.999,68.4994,0,0.000885,0,0
0:4:50.068,540.641,68.8373,0,0.000885,0,0
0:4:51.479,543.279,69.1751,0,0.000885,0,0
0:4:52.888,546.037,69.5267,0,0.000885,0,0
0:4:54.280,548.853,69.8853,0,0.000885,0,0
0:4:55.673,551.313,70.1955,0,0.000885,0,0
0:4:57.082,553.897,70.5265,0,0.000885,0,0
0:4:58.484,556.65,70.8781,0,0.000885,0,0
0:4:59.895,558.941,71.1677,0,0.000885,0,0
0:5:1.284,561.93,71.5469,0,0.000885,0,0
0:5:2.681,564.626,71.8916,0,0.000885,0,0
0:5:4.084,567.793,72.2915,0,0.000885,0,0
0:5:5.490,570.903,72.6914,0,0.000885,0,0
0:5:6.877,572.428,72.8845,0,0.000885,0,0
0:5:8.277,576.476,73.4016,0,0.000885,0,0
0:5:9.670,578.998,73.7187,0,0.000885,0,0
0:5:11.080,581.988,74.098,0,0.000885,0,0
0:5:12.480,584.981,74.4841,0,0.000885,0,0
0:5:13.883,588.09,74.8771,0,0.000885,0,0
0:5:15.278,590.493,75.1873,0,0.000885,0,0
0:5:16.678,593.548,75.5734,0,0.000885,0,0
0:5:18.095,596.071,75.8975,0,0.000885,0,0
0:5:19.490,599.242,76.2974,0,0.000885,0,0
0:5:20.891,600.061,76.4008,0,0.000885,0,0
0:5:22.277,598.828,76.2422,0,0.000885,0,0
0:5:23.691,602.236,76.6766,0,0.000885,0,0
0:5:25.085,605.229,77.0627,0,0.000885,0,0
0:5:26.485,606.577,77.2351,0,0.000885,0,0
0:5:27.895,602.351,76.6904,0,0.000885,0,0
0:5:29.294,603.117,76.7938,0,0.000885,0,0
0:5:30.686,595.661,75.8423,0,0.000885,0,0
0:5:32.092,582.401,74.1531,0,0.000885,0,0
0:5:33.500,573.896,73.0706,0,0.000885,0,0
0:5:34.882,569.733,72.5397,0,0.000885,0,0
0:5:36.291,553.425,70.4644,0,0.000885,0,0
0:5:37.695,516.946,65.8174,0,0.000885,0,0
0:5:39.095,488.326,62.1769,0,0.000885,0,0
0:5:39.899,467.388,59.5087,0,0.000885,0,0