File: DataFile2021-06-29_044908.csv
Test ID:,Date Tested:,Time:,Test Type:,Width (mm):,Depth (mm):,Height (mm):,Age (days):,Weight (kN):,Ramp Rate (MPa/s):,Load at Break (kN):,Stress at Break (MPa):
12,6/29/2021,04:49,Cube,100,100,100,7,8.37,0.01,36.89,3.69
Sample Time,Load (kN),Stress (MPa),Long. Strain,Trans. Strain,Chan1 Deflection (mm),Chan2 Deflection (mm)
0:0:9.010,9.91064,0.992845,0,0.000885,0,0
0:0:9.303,11.9079,1.19279,0,0.000885,0,0
0:0:9.596,11.6143,1.15832,0,0.000885,0,0
0:0:9.893,11.2629,1.12385,0,0.000885,0,0
0:0:10.182,11.1428,1.11695,0,0.000885,0,0
0:0:10.478,11.2629,1.12385,0,0.000885,0,0
0:0:10.769,10.7336,1.07558,0,0.000885,0,0
0:0:11.063,10.6179,1.06179,0,0.000885,0,0
0:0:11.358,10.6757,1.06869,0,0.000885,0,0
0:0:11.666,10.5556,1.0549,0,0.000885,0,0
0:0:11.964,11.2629,1.12385,0,0.000885,0,0
0:0:12.263,11.6143,1.15832,0,0.000885,0,0
0:0:12.558,11.9079,1.19279,0,0.000885,0,0
0:0:12.861,11.73,1.17211,0,0.000885,0,0
0:0:13.161,11.6721,1.16521,0,0.000885,0,0
0:0:13.455,12.1392,1.21348,0,0.000885,0,0
0:0:13.767,13.0778,1.31,0,0.000885,0,0
0:0:14.065,13.3135,1.33069,0,0.000885,0,0
0:0:14.365,14.0163,1.39964,0,0.000885,0,0
0:0:14.663,14.8971,1.48927,0,0.000885,0,0
0:0:14.963,15.0127,1.50306,0,0.000885,0,0
0:0:15.261,15.3063,1.53064,0,0.000885,0,0
0:0:15.559,15.6577,1.56511,0,0.000885,0,0
0:0:15.867,16.2449,1.62716,0,0.000885,0,0
0:0:16.164,16.4807,1.64785,0,0.000885,0,0
0:0:16.454,17.2413,1.72369,0,0.000885,0,0
0:0:16.759,17.7706,1.77885,0,0.000885,0,0
0:0:17.065,17.7128,1.77195,0,0.000885,0,0
0:0:17.363,18.0064,1.79953,0,0.000885,0,0
0:0:17.660,17.655,1.76506,0,0.000885,0,0
0:0:17.960,17.9486,1.79264,0,0.000885,0,0
0:0:18.265,18.4156,1.8409,0,0.000885,0,0
0:0:18.559,18.7092,1.86848,0,0.000885,0,0
0:0:18.859,18.7092,1.86848,0,0.000885,0,0
0:0:19.164,18.8871,1.88916,0,0.000885,0,0
0:0:19.464,19.0606,1.90295,0,0.000885,0,0
0:0:19.762,19.59,1.95811,0,0.000885,0,0
0:0:20.060,20.057,2.00637,0,0.000885,0,0
0:0:20.366,20.3506,2.03395,0,0.000885,0,0
0:0:20.665,20.8221,2.08222,0,0.000885,0,0
0:0:20.964,20.4084,2.04085,0,0.000885,0,0
0:0:21.262,21.347,2.13737,0,0.000885,0,0
0:0:21.563,21.5828,2.15806,0,0.000885,0,0
0:0:21.865,21.7029,2.17185,0,0.000885,0,0
0:0:22.160,21.7607,2.17874,0,0.000885,0,0
0:0:22.462,22.3479,2.2339,0,0.000885,0,0
0:0:22.760,22.4635,2.24769,0,0.000885,0,0
0:0:23.060,22.8728,2.28906,0,0.000885,0,0
0:0:23.354,23.4599,2.34422,0,0.000885,0,0
0:0:23.660,23.6957,2.3718,0,0.000885,0,0
0:0:23.962,23.8692,2.38559,0,0.000885,0,0
0:0:24.255,24.1049,2.41317,0,0.000885,0,0
0:0:24.554,24.2828,2.42695,0,0.000885,0,0
0:0:24.854,24.4563,2.44764,0,0.000885,0,0
0:0:25.165,24.87,2.48901,0,0.000885,0,0
0:0:25.462,24.9278,2.4959,0,0.000885,0,0
0:0:25.761,25.515,2.55106,0,0.000885,0,0
0:0:26.061,25.8041,2.57864,0,0.000885,0,0
0:0:26.356,26.2178,2.62001,0,0.000885,0,0
0:0:26.661,26.6849,2.66827,0,0.000885,0,0
0:0:26.965,26.8628,2.68896,0,0.000885,0,0
0:0:27.261,27.272,2.73032,0,0.000885,0,0
0:0:27.564,27.6235,2.7648,0,0.000885,0,0
0:0:27.861,27.8592,2.78548,0,0.000885,0,0
0:0:28.162,28.5042,2.84753,0,0.000885,0,0
0:0:28.467,29.0914,2.90959,0,0.000885,0,0
0:0:28.771,29.0335,2.90269,0,0.000885,0,0
0:0:29.081,28.9713,2.8958,0,0.000885,0,0
0:0:29.378,29.5006,2.95096,0,0.000885,0,0
0:0:29.680,29.4428,2.94406,0,0.000885,0,0
0:0:29.978,30.2657,3.0268,0,0.000885,0,0
0:0:30.276,30.4392,3.04059,0,0.000885,0,0
0:0:30.575,30.2034,3.0199,0,0.000885,0,0
0:0:30.870,30.8484,3.08196,0,0.000885,0,0
0:0:31.164,31.142,3.11643,0,0.000885,0,0
0:0:31.460,31.4934,3.1509,0,0.000885,0,0
0:0:31.762,31.7292,3.17159,0,0.000885,0,0
0:0:32.066,31.9071,3.19227,0,0.000885,0,0
0:0:32.361,32.3742,3.24054,0,0.000885,0,0
0:0:32.661,32.6099,3.26122,0,0.000885,0,0
0:0:32.957,32.6677,3.26811,0,0.000885,0,0
0:0:33.257,32.9035,3.2888,0,0.000885,0,0
0:0:33.565,32.9035,3.2888,0,0.000885,0,0
0:0:33.857,33.3127,3.33017,0,0.000885,0,0
0:0:34.161,33.7842,3.37843,0,0.000885,0,0
0:0:34.456,34.1935,3.4198,0,0.000885,0,0
0:0:34.769,34.4871,3.44738,0,0.000885,0,0
0:0:35.069,34.7806,3.47496,0,0.000885,0,0
0:0:35.367,34.8385,3.48185,0,0.000885,0,0
0:0:35.665,34.8963,3.48875,0,0.000885,0,0
0:0:35.963,35.5991,3.55769,0,0.000885,0,0
0:0:36.263,35.8349,3.58527,0,0.000885,0,0
0:0:36.569,35.2477,3.52322,0,0.000885,0,0
0:0:36.861,35.8349,3.58527,0,0.000885,0,0
0:0:37.164,36.1863,3.61975,0,0.000885,0,0
0:0:37.461,36.5377,3.65422,0,0.000885,0,0
0:0:37.769,37.245,3.72317,0,0.000885,0,0
0:0:38.067,36.9514,3.69559,0,0.000885,0,0
0:0:38.369,36.8313,3.6818,0,0.000885,0,0
0:0:38.662,37.067,3.70938,0,0.000885,0,0
0:0:38.966,36.7734,3.67491,0,0.000885,0,0
0:0:39.267,36.2441,3.62664,0,0.000885,0,0
0:0:39.564,35.8349,3.58527,0,0.000885,0,0
0:0:39.865,34.8385,3.48185,0,0.000885,0,0
0:0:40.161,34.7228,3.47496,0,0.000885,0,0
0:0:40.469,34.2513,3.42669,0,0.000885,0,0
0:0:40.766,34.0778,3.40601,0,0.000885,0,0
0:0:41.064,33.3706,3.33706,0,0.000885,0,0
0:0:41.364,32.6099,3.26122,0,0.000885,0,0
0:0:41.668,31.6135,3.16469,0,0.000885,0,0
0:0:41.961,30.2657,3.0268,0,0.000885,0,0
0:0:42.261,29.3271,2.93027,0,0.000885,0,0
0:0:42.556,28.1528,2.81306,0,0.000885,0,0
0:0:42.868,27.6235,2.7648,0,0.000885,0,0
0:0:43.164,26.9785,2.69585,0,0.000885,0,0
0:0:43.466,26.2756,2.6269,0,0.000885,0,0
0:0:43.767,25.3949,2.53727,0,0.000885,0,0
0:0:44.065,24.6921,2.46832,0,0.000885,0,0
0:0:44.362,24.3407,2.43385,0,0.000885,0,0
0:0:44.661,24.3407,2.43385,0,0.000885,0,0
0:0:44.957,24.9857,2.4959,0,0.000885,0,0
0:0:45.257,24.5764,2.45453,0,0.000885,0,0
0:0:45.555,24.8077,2.48211,0,0.000885,0,0
0:0:45.851,24.9278,2.4959,0,0.000885,0,0
0:0:46.149,24.87,2.48901,0,0.000885,0,0
0:0:46.462,24.7499,2.47522,0,0.000885,0,0
0:0:46.765,24.9857,2.4959,0,0.000885,0,0
0:0:47.070,25.1591,2.51659,0,0.000885,0,0
0:0:47.369,25.2214,2.52348,0,0.000885,0,0
0:0:47.667,25.2792,2.53038,0,0.000885,0,0
0:0:47.968,25.3371,2.53038,0,0.000885,0,0
0:0:48.262,25.2792,2.53038,0,0.000885,0,0
0:0:48.566,25.1013,2.50969,0,0.000885,0,0
0:0:48.867,25.2792,2.53038,0,0.000885,0,0
0:0:49.164,25.3949,2.53727,0,0.000885,0,0
0:0:49.464,25.515,2.55106,0,0.000885,0,0
0:0:49.762,25.515,2.55106,0,0.000885,0,0
0:0:50.057,25.3371,2.53038,0,0.000885,0,0
0:0:50.354,25.1013,2.50969,0,0.000885,0,0
0:0:50.664,25.4527,2.54417,0,0.000885,0,0
0:0:50.964,24.7499,2.47522,0,0.000885,0,0
0:0:51.268,25.1591,2.51659,0,0.000885,0,0
0:0:51.562,25.2792,2.53038,0,0.000885,0,0
0:0:51.863,24.6343,2.46143,0,0.000885,0,0
0:0:52.169,24.6343,2.46143,0,0.000885,0,0
0:0:52.468,25.0435,2.5028,0,0.000885,0,0
0:0:52.765,24.5764,2.45453,0,0.000885,0,0
0:0:53.066,24.6343,2.46143,0,0.000885,0,0
0:0:53.368,24.5141,2.45453,0,0.000885,0,0
0:0:53.664,24.5141,2.45453,0,0.000885,0,0
0:0:53.972,24.4563,2.44764,0,0.000885,0,0
0:0:54.270,23.9893,2.39938,0,0.000885,0,0
0:0:54.570,23.8113,2.37869,0,0.000885,0,0
0:0:54.869,24.0471,2.40627,0,0.000885,0,0
0:0:55.166,24.0471,2.40627,0,0.000885,0,0
0:0:55.464,23.9314,2.39248,0,0.000885,0,0
0:0:55.759,23.6378,2.3649,0,0.000885,0,0
0:0:56.058,23.6378,2.3649,0,0.000885,0,0
0:0:56.365,23.4021,2.33732,0,0.000885,0,0
0:0:56.670,23.1085,2.30974,0,0.000885,0,0
0:0:56.970,22.4635,2.24769,0,0.000885,0,0
0:0:57.267,22.1699,2.22011,0,0.000885,0,0
0:0:57.568,21.7029,2.17185,0,0.000885,0,0
0:0:57.864,21.5828,2.15806,0,0.000885,0,0
0:0:58.164,21.2892,2.13048,0,0.000885,0,0
0:0:58.468,21.2892,2.13048,0,0.000885,0,0
0:0:58.763,20.5864,2.06153,0,0.000885,0,0
0:0:59.071,20.4707,2.04774,0,0.000885,0,0
0:0:59.368,20.4084,2.04085,0,0.000885,0,0
0:0:59.669,20.4084,2.04085,0,0.000885,0,0
0:0:59.968,20.3506,2.03395,0,0.000885,0,0
0:1:0.265,20.3506,2.03395,0,0.000885,0,0
0:1:0.560,20.2928,2.02706,0,0.000885,0,0
0:1:0.858,20.057,2.00637,0,0.000885,0,0
0:1:1.169,20.4084,2.04085,0,0.000885,0,0
0:1:1.465,20.4707,2.04774,0,0.000885,0,0
0:1:1.766,20.4707,2.04774,0,0.000885,0,0
0:1:2.068,20.5285,2.05464,0,0.000885,0,0
0:1:2.364,20.2928,2.02706,0,0.000885,0,0
0:1:2.671,20.1193,2.01327,0,0.000885,0,0
0:1:2.969,19.8836,1.98569,0,0.000885,0,0
0:1:3.268,19.8836,1.98569,0,0.000885,0,0
0:1:3.563,19.7056,1.9719,0,0.000885,0,0
0:1:3.865,19.412,1.94432,0,0.000885,0,0
0:1:4.168,19.3542,1.93743,0,0.000885,0,0
0:1:4.460,19.3542,1.93743,0,0.000885,0,0
0:1:4.764,19.2964,1.93053,0,0.000885,0,0
0:1:5.058,18.8871,1.88916,0,0.000885,0,0
0:1:5.356,19.1185,1.90985,0,0.000885,0,0
0:1:5.665,18.8871,1.88916,0,0.000885,0,0
0:1:5.960,18.8249,1.88227,0,0.000885,0,0
0:1:6.155,18.6514,1.86848,0,0.000885,0,0