File: DataFile2021-06-29_061424.csv
Test ID:,Date Tested:,Time:,Test Type:,Diameter Avg. (mm):,Cyl. Corr. Factor:,Height (mm):,Age (days):,Weight (kN):,Break Type:,Ramp Rate (MPa/s):,Load at Break (kN):,Stress at Break (MPa):
12,6/29/2021,06:14,Cylinder,100,1,200,0,3.6,3,0.21,292.31,37.22
Sample Time,Load (kN),Stress (MPa),Long. Strain,Trans. Strain,Chan1 Deflection (mm),Chan2 Deflection (mm)
0:0:18.008,5.57362,0.71016,0,0.000885,0,0
0:0:18.702,11.9079,1.51685,0,0.000885,0,0
0:0:19.395,10.44,1.33069,0,0.000885,0,0
0:0:20.093,10.1464,1.28932,0,0.000885,0,0
0:0:20.785,10.8492,1.37895,0,0.000885,0,0
0:0:21.478,11.2629,1.43411,0,0.000885,0,0
0:0:22.175,12.6107,1.60648,0,0.000885,0,0
0:0:22.867,13.5493,1.72369,0,0.000885,0,0
0:0:23.575,15.7778,2.00637,0,0.000885,0,0
0:0:24.281,17.3036,2.20632,0,0.000885,0,0
0:0:24.981,19.3542,2.46143,0,0.000885,0,0
0:0:25.679,20.5285,2.61311,0,0.000885,0,0
0:0:26.374,22.2278,2.82685,0,0.000885,0,0
0:0:27.069,23.9314,3.04748,0,0.000885,0,0
0:0:27.766,24.4563,3.11643,0,0.000885,0,0
0:0:28.468,25.2792,3.21985,0,0.000885,0,0
0:0:29.179,27.3877,3.48875,0,0.000885,0,0
0:0:29.885,28.5042,3.62664,0,0.000885,0,0
0:0:30.577,29.852,3.79901,0,0.000885,0,0
0:0:31.275,31.2621,3.97827,0,0.000885,0,0
0:0:31.971,32.6677,4.15754,0,0.000885,0,0
0:0:32.664,34.0156,4.32991,0,0.000885,0,0
0:0:33.362,35.5991,4.52986,0,0.000885,0,0
0:0:34.071,37.3606,4.75738,0,0.000885,0,0
0:0:34.777,38.1213,4.85391,0,0.000885,0,0
0:0:35.477,39.2378,4.9987,0,0.000885,0,0
0:0:36.172,41.2884,5.25381,0,0.000885,0,0
0:0:36.867,42.227,5.37791,0,0.000885,0,0
0:0:37.565,43.6949,5.56407,0,0.000885,0,0
0:0:38.264,45.0427,5.73644,0,0.000885,0,0
0:0:38.973,45.9813,5.85365,0,0.000885,0,0
0:0:39.679,47.1556,6.00533,0,0.000885,0,0
0:0:40.372,49.0906,6.25354,0,0.000885,0,0
0:0:41.070,50.1448,6.38455,0,0.000885,0,0
0:0:41.768,52.2577,6.65344,0,0.000885,0,0
0:0:42.461,53.1385,6.76376,0,0.000885,0,0
0:0:43.162,54.4863,6.93613,0,0.000885,0,0
0:0:43.872,55.7763,7.1016,0,0.000885,0,0
0:0:44.578,57.302,7.29465,0,0.000885,0,0
0:0:45.278,59.059,7.52218,0,0.000885,0,0
0:0:45.973,60.7049,7.72902,0,0.000885,0,0
0:0:46.671,61.7013,7.85313,0,0.000885,0,0
0:0:47.371,62.6977,7.98413,0,0.000885,0,0
0:0:48.063,63.9877,8.1496,0,0.000885,0,0
0:0:48.773,65.4556,8.33576,0,0.000885,0,0
0:0:49.480,67.3327,8.57018,0,0.000885,0,0
0:0:50.180,68.5604,8.72876,0,0.000885,0,0
0:0:50.882,69.9705,8.90803,0,0.000885,0,0
0:0:51.575,71.3183,9.0804,0,0.000885,0,0
0:0:52.273,72.1991,9.19071,0,0.000885,0,0
0:0:52.971,73.667,9.37687,0,0.000885,0,0
0:0:53.675,75.3084,9.59061,0,0.000885,0,0
0:0:54.383,76.7719,9.77677,0,0.000885,0,0
0:0:55.087,77.9462,9.92156,0,0.000885,0,0
0:0:55.784,79.1783,10.0801,0,0.000885,0,0
0:0:56.483,80.9977,10.3146,0,0.000885,0,0
0:0:57.176,82.1675,10.4593,0,0.000885,0,0
0:0:57.873,83.6355,10.6455,0,0.000885,0,0
0:0:58.574,84.8098,10.7972,0,0.000885,0,0
0:0:59.285,86.042,10.9558,0,0.000885,0,0
0:0:59.991,87.154,11.0937,0,0.000885,0,0
0:1:0.685,89.1468,11.3488,0,0.000885,0,0
0:1:1.383,90.1477,11.4798,0,0.000885,0,0
0:1:2.082,92.2561,11.7487,0,0.000885,0,0
0:1:2.773,93.6084,11.921,0,0.000885,0,0
0:1:3.473,94.4268,12.0245,0,0.000885,0,0
0:1:4.184,95.7168,12.1899,0,0.000885,0,0
0:1:4.891,97.1847,12.3761,0,0.000885,0,0
0:1:5.591,98.7683,12.576,0,0.000885,0,0
0:1:6.282,99.8225,12.707,0,0.000885,0,0
0:1:6.981,101.406,12.9139,0,0.000885,0,0
0:1:7.679,102.638,13.0656,0,0.000885,0,0
0:1:8.372,103.928,13.231,0,0.000885,0,0
0:1:9.082,105.103,13.3827,0,0.000885,0,0
0:1:9.789,107.331,13.6654,0,0.000885,0,0
0:1:10.492,108.505,13.8171,0,0.000885,0,0
0:1:11.190,109.502,13.9412,0,0.000885,0,0
0:1:11.884,111.143,14.148,0,0.000885,0,0
0:1:12.581,112.375,14.3066,0,0.000885,0,0
0:1:13.282,113.959,14.5066,0,0.000885,0,0
0:1:13.993,115.543,14.7134,0,0.000885,0,0
0:1:14.698,116.01,14.7686,0,0.000885,0,0
0:1:15.393,117.945,15.0168,0,0.000885,0,0
0:1:16.090,118.768,15.1202,0,0.000885,0,0
0:1:16.788,120.76,15.3753,0,0.000885,0,0
0:1:17.481,122.637,15.6166,0,0.000885,0,0
0:1:18.180,123.225,15.6925,0,0.000885,0,0
0:1:18.890,124.808,15.8924,0,0.000885,0,0
0:1:19.596,125.862,16.0234,0,0.000885,0,0
0:1:20.295,126.979,16.1682,0,0.000885,0,0
0:1:20.989,129.265,16.4578,0,0.000885,0,0
0:1:21.687,130.733,16.6439,0,0.000885,0,0
0:1:22.384,131.494,16.7405,0,0.000885,0,0
0:1:23.078,132.432,16.8646,0,0.000885,0,0
0:1:23.785,134.777,17.1611,0,0.000885,0,0
0:1:24.492,135.715,17.2783,0,0.000885,0,0
0:1:25.192,137.125,17.4575,0,0.000885,0,0
0:1:25.891,138.3,17.6092,0,0.000885,0,0
0:1:26.588,140.292,17.8643,0,0.000885,0,0
0:1:27.281,141.467,18.0091,0,0.000885,0,0
0:1:27.981,142.285,18.1194,0,0.000885,0,0
0:1:28.680,144.75,18.4297,0,0.000885,0,0
0:1:29.389,144.985,18.4573,0,0.000885,0,0
0:1:30.094,147.214,18.7468,0,0.000885,0,0
0:1:30.788,148.21,18.871,0,0.000885,0,0
0:1:31.486,149.091,18.9813,0,0.000885,0,0
0:1:32.183,150.732,19.195,0,0.000885,0,0
0:1:32.875,152.432,19.4087,0,0.000885,0,0
0:1:33.582,153.722,19.5742,0,0.000885,0,0
0:1:34.290,154.718,19.6983,0,0.000885,0,0
0:1:34.989,156.657,19.9465,0,0.000885,0,0
0:1:35.689,156.831,19.9672,0,0.000885,0,0
0:1:36.383,159.002,20.243,0,0.000885,0,0
0:1:37.078,161.052,20.505,0,0.000885,0,0
0:1:37.776,161.639,20.5809,0,0.000885,0,0
0:1:38.474,163.223,20.7808,0,0.000885,0,0
0:1:39.183,164.046,20.8842,0,0.000885,0,0
0:1:39.890,166.39,21.1876,0,0.000885,0,0
0:1:40.582,167.387,21.3117,0,0.000885,0,0
0:1:41.279,169.032,21.5185,0,0.000885,0,0
0:1:41.977,169.971,21.6426,0,0.000885,0,0
0:1:42.670,171.025,21.7736,0,0.000885,0,0
0:1:43.369,173.138,22.0425,0,0.000885,0,0
0:1:44.077,174.192,22.1804,0,0.000885,0,0
0:1:44.782,175.425,22.339,0,0.000885,0,0
0:1:45.483,176.83,22.5183,0,0.000885,0,0
0:1:46.178,178.062,22.67,0,0.000885,0,0
0:1:46.873,179.472,22.8492,0,0.000885,0,0
0:1:47.573,181.407,23.0974,0,0.000885,0,0
0:1:48.272,182.346,23.2146,0,0.000885,0,0
0:1:48.982,183.752,23.3939,0,0.000885,0,0
0:1:49.689,185.393,23.6076,0,0.000885,0,0
0:1:50.381,186.977,23.8076,0,0.000885,0,0
0:1:51.078,187.39,23.8559,0,0.000885,0,0
0:1:51.776,189.499,24.1248,0,0.000885,0,0
0:1:52.468,190.557,24.2627,0,0.000885,0,0
0:1:53.169,191.727,24.4143,0,0.000885,0,0
0:1:53.875,193.84,24.6832,0,0.000885,0,0
0:1:54.572,194.307,24.7384,0,0.000885,0,0
0:1:55.266,196.127,24.9728,0,0.000885,0,0
0:1:55.957,197.474,25.1452,0,0.000885,0,0
0:1:56.644,198.533,25.2762,0,0.000885,0,0
0:1:57.350,199.703,25.4279,0,0.000885,0,0
0:1:58.039,202.287,25.7588,0,0.000885,0,0
0:1:58.737,203.342,25.8898,0,0.000885,0,0
0:1:59.440,204.925,26.0898,0,0.000885,0,0
0:2:0.155,205.864,26.2139,0,0.000885,0,0
0:2:0.850,207.154,26.3724,0,0.000885,0,0
0:2:1.541,207.799,26.4552,0,0.000885,0,0
0:2:2.251,209.849,26.7172,0,0.000885,0,0
0:2:2.943,210.966,26.862,0,0.000885,0,0
0:2:3.649,212.082,26.9999,0,0.000885,0,0
0:2:4.353,213.31,27.1584,0,0.000885,0,0
0:2:5.056,214.956,27.3722,0,0.000885,0,0
0:2:5.753,216.246,27.5308,0,0.000885,0,0
0:2:6.455,217.945,27.7514,0,0.000885,0,0
0:2:7.149,219.413,27.9376,0,0.000885,0,0
0:2:7.843,220.525,28.0755,0,0.000885,0,0
0:2:8.544,222.287,28.303,0,0.000885,0,0
0:2:9.250,223.577,28.4685,0,0.000885,0,0
0:2:9.943,224.866,28.6339,0,0.000885,0,0
0:2:10.636,225.979,28.7718,0,0.000885,0,0
0:2:11.330,227.331,28.9442,0,0.000885,0,0
0:2:12.037,228.914,29.1441,0,0.000885,0,0
0:2:12.741,230.262,29.3165,0,0.000885,0,0
0:2:13.457,231.904,29.5302,0,0.000885,0,0
0:2:14.162,233.136,29.6819,0,0.000885,0,0
0:2:14.862,233.959,29.7854,0,0.000885,0,0
0:2:15.553,235.542,29.9922,0,0.000885,0,0
0:2:16.254,237.241,30.2059,0,0.000885,0,0
0:2:16.946,239.176,30.4541,0,0.000885,0,0
0:2:17.656,240.115,30.5714,0,0.000885,0,0
0:2:18.357,240.938,30.6748,0,0.000885,0,0
0:2:19.063,242.637,30.8954,0,0.000885,0,0
0:2:19.762,243.927,31.0609,0,0.000885,0,0
0:2:20.457,245.337,31.2401,0,0.000885,0,0
0:2:21.157,246.859,31.4332,0,0.000885,0,0
0:2:21.846,248.326,31.6194,0,0.000885,0,0
0:2:22.541,249.501,31.7641,0,0.000885,0,0
0:2:23.235,250.319,31.8745,0,0.000885,0,0
0:2:23.940,252.023,32.0882,0,0.000885,0,0
0:2:24.641,253.251,32.2468,0,0.000885,0,0
0:2:25.339,255.07,32.4743,0,0.000885,0,0
0:2:26.031,257.183,32.7432,0,0.000885,0,0
0:2:26.743,257.943,32.8397,0,0.000885,0,0
0:2:27.433,259.354,33.019,0,0.000885,0,0
0:2:28.132,260.701,33.1914,0,0.000885,0,0
0:2:28.836,262.343,33.4051,0,0.000885,0,0
0:2:29.539,263.459,33.543,0,0.000885,0,0
0:2:30.242,265.216,33.7705,0,0.000885,0,0
0:2:30.944,266.8,33.9705,0,0.000885,0,0
0:2:31.654,267.623,34.0739,0,0.000885,0,0
0:2:32.346,268.383,34.1704,0,0.000885,0,0
0:2:33.036,269.851,34.3566,0,0.000885,0,0
0:2:33.743,270.848,34.4876,0,0.000885,0,0
0:2:34.446,271.551,34.5772,0,0.000885,0,0
0:2:35.142,272.725,34.722,0,0.000885,0,0
0:2:35.836,274.193,34.9082,0,0.000885,0,0
0:2:36.546,274.718,34.9771,0,0.000885,0,0
0:2:37.254,274.896,34.9978,0,0.000885,0,0
0:2:37.947,275.95,35.1357,0,0.000885,0,0
0:2:38.648,277.533,35.3356,0,0.000885,0,0
0:2:39.355,279.353,35.5701,0,0.000885,0,0
0:2:40.055,280.936,35.77,0,0.000885,0,0
0:2:40.755,282.756,36.0044,0,0.000885,0,0
0:2:41.445,284.277,36.1975,0,0.000885,0,0
0:2:42.139,287.213,36.5698,0,0.000885,0,0
0:2:42.828,288.912,36.7835,0,0.000885,0,0
0:2:43.528,289.673,36.8801,0,0.000885,0,0
0:2:44.230,291.025,37.0524,0,0.000885,0,0
0:2:44.927,292.373,37.2248,0,0.000885,0,0
0:2:45.617,288.912,36.7835,0,0.000885,0,0
0:2:46.309,288.739,36.7628,0,0.000885,0,0
0:2:46.996,287.506,36.6043,0,0.000885,0,0
0:2:47.687,286.977,36.5422,0,0.000885,0,0
0:2:48.379,286.861,36.5215,0,0.000885,0,0
0:2:49.084,285.981,36.4112,0,0.000885,0,0
0:2:49.782,286.038,36.4181,0,0.000885,0,0
0:2:50.471,284.864,36.2733,0,0.000885,0,0
0:2:51.160,283.165,36.0527,0,0.000885,0,0
0:2:51.853,283.338,36.0734,0,0.000885,0,0
0:2:52.548,284.161,36.1837,0,0.000885,0,0
0:2:53.257,284.046,36.163,0,0.000885,0,0
0:2:53.962,283.926,36.1492,0,0.000885,0,0
0:2:54.661,283.049,36.0389,0,0.000885,0,0
0:2:55.355,282.226,35.9355,0,0.000885,0,0
0:2:56.057,281.697,35.8665,0,0.000885,0,0
0:2:56.753,281.288,35.8114,0,0.000885,0,0
0:2:57.450,280.585,35.7217,0,0.000885,0,0
0:2:58.142,279.526,35.5907,0,0.000885,0,0
0:2:58.844,276.595,35.2184,0,0.000885,0,0
0:2:59.544,259.118,32.9914,0,0.000885,0,0
0:3:0.246,257.183,32.7432,0,0.000885,0,0
0:3:0.941,253.958,32.3364,0,0.000885,0,0
0:3:1.656,249.087,31.7159,0,0.000885,0,0
0:3:2.354,246.214,31.3505,0,0.000885,0,0
0:3:3.060,242.579,30.8885,0,0.000885,0,0
0:3:3.763,232.669,29.6268,0,0.000885,0,0
0:3:4.462,227.562,28.9718,0,0.000885,0,0
0:3:4.989,220.467,28.0686,0,0.000885,0,0