File: DataFile2021-06-08_040109.csv
Test ID:,Date Tested:,Time:,Test Type:,Diameter Avg. (mm):,Cyl. Corr. Factor:,Height (mm):,Age (days):,Weight (kN):,Break Type:,Ramp Rate (MPa/s):,Load at Break (kN):,Stress at Break (MPa):
12,6/8/2021,04:01,Cylinder,100,1,200,0,3.6,3,0.25,925.72,117.87
Sample Time,Load (kN),Stress (MPa),Long. Strain,Trans. Strain,Chan1 Deflection (mm),Chan2 Deflection (mm)
0:0:13.167,5.57362,0.71016,0,0.000885,0,0
0:0:15.153,11.4942,1.46169,0,0.000885,0,0
0:0:17.144,11.4942,1.46169,0,0.000885,0,0
0:0:19.162,16.4807,2.09601,0,0.000885,0,0
0:0:21.167,21.2892,2.70964,0,0.000885,0,0
0:0:23.156,24.2206,3.08196,0,0.000885,0,0
0:0:25.168,28.7978,3.66801,0,0.000885,0,0
0:0:27.160,33.1393,4.21959,0,0.000885,0,0
0:0:29.160,36.5377,4.65396,0,0.000885,0,0
0:0:31.164,40.5277,5.15728,0,0.000885,0,0
0:0:33.155,45.0427,5.73644,0,0.000885,0,0
0:0:35.165,48.5612,6.1846,0,0.000885,0,0
0:0:37.154,51.7862,6.59139,0,0.000885,0,0
0:0:39.171,55.6606,7.08781,0,0.000885,0,0
0:0:41.170,60.2334,7.66697,0,0.000885,0,0
0:0:43.161,64.2234,8.17718,0,0.000885,0,0
0:0:45.176,67.9777,8.65292,0,0.000885,0,0
0:0:47.165,71.7898,9.14245,0,0.000885,0,0
0:0:49.164,76.069,9.68713,0,0.000885,0,0
0:0:51.170,80.1169,10.1973,0,0.000885,0,0
0:0:53.159,84.3961,10.7489,0,0.000885,0,0
0:0:55.173,87.9191,11.1971,0,0.000885,0,0
0:0:57.160,91.669,11.6728,0,0.000885,0,0
0:0:59.165,95.7747,12.1968,0,0.000885,0,0
0:1:1.165,99.1775,12.6243,0,0.000885,0,0
0:1:3.155,103.341,13.1552,0,0.000885,0,0
0:1:5.166,107.211,13.6516,0,0.000885,0,0
0:1:7.155,110.908,14.1205,0,0.000885,0,0
0:1:9.159,115.249,14.672,0,0.000885,0,0
0:1:11.157,119.003,15.1547,0,0.000885,0,0
0:1:13.154,122.931,15.6511,0,0.000885,0,0
0:1:15.169,127.095,16.182,0,0.000885,0,0
0:1:17.157,131.258,16.7129,0,0.000885,0,0
0:1:19.172,134.777,17.1611,0,0.000885,0,0
0:1:21.168,138.945,17.6919,0,0.000885,0,0
0:1:23.156,142.579,18.1539,0,0.000885,0,0
0:1:25.168,146.862,18.6986,0,0.000885,0,0
0:1:27.158,150.612,19.1743,0,0.000885,0,0
0:1:29.170,154.429,19.6638,0,0.000885,0,0
0:1:31.173,158.708,20.2085,0,0.000885,0,0
0:1:33.163,161.875,20.6084,0,0.000885,0,0
0:1:35.172,166.684,21.2221,0,0.000885,0,0
0:1:37.160,169.971,21.6426,0,0.000885,0,0
0:1:39.166,173.783,22.1253,0,0.000885,0,0
0:1:41.169,178.182,22.6838,0,0.000885,0,0
0:1:43.166,181.701,23.1319,0,0.000885,0,0
0:1:45.177,186.038,23.6904,0,0.000885,0,0
0:1:47.166,189.792,24.1661,0,0.000885,0,0
0:1:49.169,193.662,24.6557,0,0.000885,0,0
0:1:51.164,197.83,25.1865,0,0.000885,0,0
0:1:53.161,201.58,25.6692,0,0.000885,0,0
0:1:55.166,205.686,26.1863,0,0.000885,0,0
0:1:57.161,210.321,26.7792,0,0.000885,0,0
0:1:59.163,213.546,27.1929,0,0.000885,0,0
0:2:1.148,217.184,27.6549,0,0.000885,0,0
0:2:3.162,221.29,28.172,0,0.000885,0,0
0:2:5.163,225.04,28.6546,0,0.000885,0,0
0:2:7.146,229.733,29.2476,0,0.000885,0,0
0:2:9.142,232.606,29.6199,0,0.000885,0,0
0:2:11.133,237.593,30.2542,0,0.000885,0,0
0:2:13.104,240.702,30.6472,0,0.000885,0,0
0:2:15.102,244.688,31.1574,0,0.000885,0,0
0:2:17.076,248.736,31.6676,0,0.000885,0,0
0:2:19.067,252.784,32.1847,0,0.000885,0,0
0:2:21.061,256.302,32.6329,0,0.000885,0,0
0:2:23.044,260.172,33.1293,0,0.000885,0,0
0:2:25.045,263.984,33.6119,0,0.000885,0,0
0:2:27.055,267.738,34.0877,0,0.000885,0,0
0:2:29.048,272.547,34.7013,0,0.000885,0,0
0:2:31.047,275.776,35.115,0,0.000885,0,0
0:2:33.048,279.526,35.5907,0,0.000885,0,0
0:2:35.049,283.868,36.1423,0,0.000885,0,0
0:2:37.052,287.973,36.6663,0,0.000885,0,0
0:2:39.050,291.728,37.1421,0,0.000885,0,0
0:2:41.049,295.188,37.5833,0,0.000885,0,0
0:2:43.043,299.352,38.1142,0,0.000885,0,0
0:2:45.041,303.693,38.6658,0,0.000885,0,0
0:2:47.016,307.27,39.1209,0,0.000885,0,0
0:2:49.005,310.966,39.5966,0,0.000885,0,0
0:2:50.988,315.481,40.1689,0,0.000885,0,0
0:2:52.971,318.413,40.5412,0,0.000885,0,0
0:2:54.970,322.638,41.079,0,0.000885,0,0
0:2:56.962,326.566,41.5823,0,0.000885,0,0
0:2:58.965,330.494,42.0787,0,0.000885,0,0
0:3:0.970,334.662,42.6096,0,0.000885,0,0
0:3:2.967,338.883,43.1474,0,0.000885,0,0
0:3:4.962,342.638,43.6231,0,0.000885,0,0
0:3:6.966,346.508,44.1196,0,0.000885,0,0
0:3:8.970,350.849,44.6711,0,0.000885,0,0
0:3:10.969,354.132,45.0917,0,0.000885,0,0
0:3:12.959,358.18,45.6019,0,0.000885,0,0
0:3:14.957,361.64,46.0432,0,0.000885,0,0
0:3:16.973,365.92,46.5879,0,0.000885,0,0
0:3:18.974,370.025,47.1119,0,0.000885,0,0
0:3:20.958,374.073,47.629,0,0.000885,0,0
0:3:22.953,377.24,48.0289,0,0.000885,0,0
0:3:24.962,382.285,48.677,0,0.000885,0,0
0:3:26.964,385.51,49.0838,0,0.000885,0,0
0:3:28.957,389.206,49.5526,0,0.000885,0,0
0:3:30.955,393.134,50.0559,0,0.000885,0,0
0:3:32.965,398.12,50.6903,0,0.000885,0,0
0:3:34.975,400.994,51.0557,0,0.000885,0,0
0:3:36.958,404.984,51.5659,0,0.000885,0,0
0:3:38.963,409.027,52.0761,0,0.000885,0,0
0:3:40.971,413.311,52.6277,0,0.000885,0,0
0:3:42.960,417.417,53.1448,0,0.000885,0,0
0:3:44.956,420.584,53.5516,0,0.000885,0,0
0:3:46.928,424.569,54.0549,0,0.000885,0,0
0:3:48.921,429.027,54.6272,0,0.000885,0,0
0:3:50.901,432.607,55.0822,0,0.000885,0,0
0:3:52.875,436.477,55.5717,0,0.000885,0,0
0:3:54.874,440.525,56.0889,0,0.000885,0,0
0:3:56.865,444.453,56.5922,0,0.000885,0,0
0:3:58.867,448.385,57.0886,0,0.000885,0,0
0:4:0.865,451.841,57.5299,0,0.000885,0,0
0:4:2.880,456.183,58.0814,0,0.000885,0,0
0:4:4.878,460.231,58.5985,0,0.000885,0,0
0:4:6.859,464.279,59.1156,0,0.000885,0,0
0:4:8.853,467.855,59.5707,0,0.000885,0,0
0:4:10.858,471.845,60.074,0,0.000885,0,0
0:4:12.856,475.889,60.5911,0,0.000885,0,0
0:4:14.858,479.763,61.0875,0,0.000885,0,0
0:4:16.863,483.219,61.5288,0,0.000885,0,0
0:4:18.867,487.267,62.039,0,0.000885,0,0
0:4:20.877,491.373,62.563,0,0.000885,0,0
0:4:22.860,495.888,63.1353,0,0.000885,0,0
0:4:24.855,499.526,63.6041,0,0.000885,0,0
0:4:26.867,503.281,64.0799,0,0.000885,0,0
0:4:28.868,507.151,64.5694,0,0.000885,0,0
0:4:30.871,511.141,65.0796,0,0.000885,0,0
0:4:32.881,515.011,65.576,0,0.000885,0,0
0:4:34.880,518.996,66.0794,0,0.000885,0,0
0:4:36.876,522.751,66.562,0,0.000885,0,0
0:4:38.867,526.563,67.0446,0,0.000885,0,0
0:4:40.870,531.198,67.6376,0,0.000885,0,0
0:4:42.871,534.894,68.1064,0,0.000885,0,0
0:4:44.870,538.822,68.6028,0,0.000885,0,0
0:4:46.876,542.518,69.0786,0,0.000885,0,0
0:4:48.886,546.331,69.5612,0,0.000885,0,0
0:4:50.871,550.258,70.0645,0,0.000885,0,0
0:4:52.867,554.248,70.5678,0,0.000885,0,0
0:4:54.878,558.528,71.1125,0,0.000885,0,0
0:4:56.871,562.46,71.6158,0,0.000885,0,0
0:4:58.862,566.152,72.0847,0,0.000885,0,0
0:5:0.885,570.258,72.6087,0,0.000885,0,0
0:5:2.858,573.425,73.0086,0,0.000885,0,0
0:5:4.860,577.415,73.5188,0,0.000885,0,0
0:5:6.837,582.281,74.1393,0,0.000885,0,0
0:5:8.825,585.568,74.5599,0,0.000885,0,0
0:5:10.816,589.203,75.0219,0,0.000885,0,0
0:5:12.797,594.016,75.6355,0,0.000885,0,0
0:5:14.804,597.361,76.0561,0,0.000885,0,0
0:5:16.788,600.826,76.4973,0,0.000885,0,0
0:5:18.791,605.403,77.0834,0,0.000885,0,0
0:5:20.783,609.571,77.6143,0,0.000885,0,0
0:5:22.786,612.738,78.0142,0,0.000885,0,0
0:5:24.795,616.848,78.5382,0,0.000885,0,0
0:5:26.783,621.074,79.076,0,0.000885,0,0
0:5:28.783,624.775,79.5517,0,0.000885,0,0
0:5:30.781,628.707,80.0481,0,0.000885,0,0
0:5:32.784,632.582,80.5446,0,0.000885,0,0
0:5:34.791,636.572,81.0479,0,0.000885,0,0
0:5:36.774,640.504,81.5512,0,0.000885,0,0
0:5:38.789,644.672,82.0821,0,0.000885,0,0
0:5:40.790,648.546,82.5785,0,0.000885,0,0
0:5:42.782,652.069,83.0267,0,0.000885,0,0
0:5:44.792,655.944,83.5162,0,0.000885,0,0
0:5:46.774,660.757,84.1298,0,0.000885,0,0
0:5:48.788,664.395,84.5918,0,0.000885,0,0
0:5:50.791,668.092,85.0675,0,0.000885,0,0
0:5:52.787,672.202,85.5846,0,0.000885,0,0
0:5:54.798,675.725,86.0328,0,0.000885,0,0
0:5:56.784,680.066,86.5913,0,0.000885,0,0
0:5:58.775,683.825,87.067,0,0.000885,0,0
0:6:0.774,687.815,87.5772,0,0.000885,0,0
0:6:2.758,691.925,88.1012,0,0.000885,0,0
0:6:4.768,695.328,88.5287,0,0.000885,0,0
0:6:6.762,699.616,89.0803,0,0.000885,0,0
0:6:8.794,703.491,89.5698,0,0.000885,0,0
0:6:10.792,707.539,90.0869,0,0.000885,0,0
0:6:12.772,711.355,90.5695,0,0.000885,0,0
0:6:14.800,714.878,91.0177,0,0.000885,0,0
0:6:16.783,719.513,91.6106,0,0.000885,0,0
0:6:18.774,723.094,92.0657,0,0.000885,0,0
0:6:20.774,727.204,92.5897,0,0.000885,0,0
0:6:22.768,730.785,93.0447,0,0.000885,0,0
0:6:24.775,734.891,93.5688,0,0.000885,0,0
0:6:26.760,739.121,94.1065,0,0.000885,0,0
0:6:28.760,742.288,94.5133,0,0.000885,0,0
0:6:30.759,746.807,95.0856,0,0.000885,0,0
0:6:32.745,750.86,95.6027,0,0.000885,0,0
0:6:34.756,754.441,96.0578,0,0.000885,0,0
0:6:36.743,758.253,96.5473,0,0.000885,0,0
0:6:38.741,764.534,97.3471,0,0.000885,0,0
0:6:40.737,765.65,97.485,0,0.000885,0,0
0:6:42.725,769.818,98.0159,0,0.000885,0,0
0:6:44.736,774.338,98.595,0,0.000885,0,0
0:6:46.722,777.918,99.0501,0,0.000885,0,0
0:6:48.716,781.793,99.5396,0,0.000885,0,0
0:6:50.718,785.961,100.071,0,0.000885,0,0
0:6:52.702,789.599,100.532,0,0.000885,0,0
0:6:54.714,793.416,101.022,0,0.000885,0,0
0:6:56.701,797.935,101.594,0,0.000885,0,0
0:6:58.699,801.107,102.001,0,0.000885,0,0
0:7:0.697,805.506,102.56,0,0.000885,0,0
0:7:2.692,809.145,103.021,0,0.000885,0,0
0:7:4.699,813.842,103.621,0,0.000885,0,0
0:7:6.681,816.956,104.021,0,0.000885,0,0
0:7:8.703,821.182,104.559,0,0.000885,0,0
0:7:10.694,825.056,105.049,0,0.000885,0,0
0:7:12.688,829.34,105.593,0,0.000885,0,0
0:7:14.698,832.685,106.021,0,0.000885,0,0
0:7:16.682,836.675,106.531,0,0.000885,0,0
0:7:18.687,840.843,107.062,0,0.000885,0,0
0:7:20.688,844.192,107.482,0,0.000885,0,0
0:7:22.682,849.005,108.096,0,0.000885,0,0
0:7:24.699,852.23,108.51,0,0.000885,0,0
0:7:26.693,856.576,109.061,0,0.000885,0,0
0:7:28.706,860.686,109.585,0,0.000885,0,0
0:7:30.699,864.325,110.047,0,0.000885,0,0
0:7:32.694,868.257,110.551,0,0.000885,0,0
0:7:34.706,871.838,111.006,0,0.000885,0,0
0:7:36.690,876.122,111.55,0,0.000885,0,0
0:7:38.682,879.996,112.047,0,0.000885,0,0
0:7:40.688,884.458,112.612,0,0.000885,0,0
0:7:42.673,888.096,113.074,0,0.000885,0,0
0:7:44.681,891.562,113.515,0,0.000885,0,0
0:7:46.697,895.729,114.046,0,0.000885,0,0
0:7:48.707,899.484,114.529,0,0.000885,0,0
0:7:50.702,903.945,115.094,0,0.000885,0,0
0:7:52.685,907.704,115.57,0,0.000885,0,0
0:7:54.709,911.872,116.101,0,0.000885,0,0
0:7:56.703,915.333,116.542,0,0.000885,0,0
0:7:58.697,919.149,117.032,0,0.000885,0,0
0:8:0.696,923.139,117.535,0,0.000885,0,0
0:8:2.409,926.311,117.942,0,0.000885,0,0