File: DataFile2021-06-08_034313.csv
Test ID:,Date Tested:,Time:,Test Type:,Diameter Avg. (mm):,Cyl. Corr. Factor:,Height (mm):,Age (days):,Weight (kN):,Break Type:,Ramp Rate (MPa/s):,Load at Break (kN):,Stress at Break (MPa):
12,6/8/2021,03:43,Cylinder,100,1,200,0,3.6,3,0.24,613.62,78.13
Sample Time,Load (kN),Stress (MPa),Long. Strain,Trans. Strain,Chan1 Deflection (mm),Chan2 Deflection (mm)
0:0:11.698,5.33787,0.682581,0,0.000885,0,0
0:0:13.108,9.91064,1.26174,0,0.000885,0,0
0:0:14.498,10.3243,1.3169,0,0.000885,0,0
0:0:15.915,12.8465,1.63406,0,0.000885,0,0
0:0:17.315,16.2449,2.06843,0,0.000885,0,0
0:0:18.724,13.3714,1.70301,0,0.000885,0,0
0:0:20.120,24.8077,3.1578,0,0.000885,0,0
0:0:21.515,24.5141,3.12333,0,0.000885,0,0
0:0:22.924,27.3299,3.48185,0,0.000885,0,0
0:0:24.326,30.0878,3.83349,0,0.000885,0,0
0:0:25.716,32.6677,4.15754,0,0.000885,0,0
0:0:27.114,35.4835,4.51607,0,0.000885,0,0
0:0:28.531,38.5349,4.90907,0,0.000885,0,0
0:0:29.930,40.5856,5.16417,0,0.000885,0,0
0:0:31.322,43.8105,5.57786,0,0.000885,0,0
0:0:32.729,46.3905,5.90881,0,0.000885,0,0
0:0:34.131,48.797,6.21218,0,0.000885,0,0
0:0:35.525,51.7862,6.59139,0,0.000885,0,0
0:0:36.929,54.6019,6.94992,0,0.000885,0,0
0:0:38.343,58.1827,7.40497,0,0.000885,0,0
0:0:39.737,60.1177,7.65318,0,0.000885,0,0
0:0:41.133,63.0491,8.0255,0,0.000885,0,0
0:0:42.533,65.6869,8.36334,0,0.000885,0,0
0:0:43.939,68.5604,8.72876,0,0.000885,0,0
0:0:45.331,71.6119,9.11487,0,0.000885,0,0
0:0:46.727,73.8405,9.40445,0,0.000885,0,0
0:0:48.135,76.892,9.79056,0,0.000885,0,0
0:0:49.533,79.1783,10.0801,0,0.000885,0,0
0:0:50.925,81.9941,10.4387,0,0.000885,0,0
0:0:52.322,84.9833,10.8179,0,0.000885,0,0
0:0:53.738,88.0926,11.2178,0,0.000885,0,0
0:0:55.129,90.4991,11.5211,0,0.000885,0,0
0:0:56.529,93.4304,11.8935,0,0.000885,0,0
0:0:57.937,96.1261,12.2382,0,0.000885,0,0
0:0:59.338,98.3546,12.5209,0,0.000885,0,0
0:1:0.730,101.406,12.9139,0,0.000885,0,0
0:1:2.127,104.337,13.2862,0,0.000885,0,0
0:1:3.539,106.86,13.6034,0,0.000885,0,0
0:1:4.932,109.618,13.955,0,0.000885,0,0
0:1:6.330,112.255,14.2928,0,0.000885,0,0
0:1:7.737,114.898,14.6307,0,0.000885,0,0
0:1:9.143,118.652,15.1064,0,0.000885,0,0
0:1:10.532,120.467,15.3408,0,0.000885,0,0
0:1:11.933,123.754,15.7545,0,0.000885,0,0
0:1:13.345,125.925,16.0303,0,0.000885,0,0
0:1:14.745,128.62,16.375,0,0.000885,0,0
0:1:16.134,131.258,16.7129,0,0.000885,0,0
0:1:17.530,134.074,17.0714,0,0.000885,0,0
0:1:18.945,136.947,17.4368,0,0.000885,0,0
0:1:20.336,139.821,17.8023,0,0.000885,0,0
0:1:21.726,142.757,18.1746,0,0.000885,0,0
0:1:23.139,145.573,18.5331,0,0.000885,0,0
0:1:24.536,148.504,18.9054,0,0.000885,0,0
0:1:25.922,151.493,19.2915,0,0.000885,0,0
0:1:27.320,153.664,19.5673,0,0.000885,0,0
0:1:28.736,156.128,19.8776,0,0.000885,0,0
0:1:30.128,159.18,20.2637,0,0.000885,0,0
0:1:31.528,162.053,20.636,0,0.000885,0,0
0:1:32.936,164.633,20.9601,0,0.000885,0,0
0:1:34.338,167.449,21.3186,0,0.000885,0,0
0:1:35.732,170.087,21.6564,0,0.000885,0,0
0:1:37.137,172.724,21.9943,0,0.000885,0,0
0:1:38.546,176.127,22.4286,0,0.000885,0,0
0:1:39.941,178.765,22.7596,0,0.000885,0,0
0:1:41.333,180.878,23.0285,0,0.000885,0,0
0:1:42.739,184.045,23.4353,0,0.000885,0,0
0:1:44.138,187.154,23.8283,0,0.000885,0,0
0:1:45.534,189.089,24.0765,0,0.000885,0,0
0:1:46.922,192.021,24.4488,0,0.000885,0,0
0:1:48.328,195.13,24.8418,0,0.000885,0,0
0:1:49.710,197.301,25.1176,0,0.000885,0,0
0:1:51.094,200.641,25.5451,0,0.000885,0,0
0:1:52.485,202.461,25.7795,0,0.000885,0,0
0:1:53.879,206.157,26.2483,0,0.000885,0,0
0:1:55.261,208.679,26.5724,0,0.000885,0,0
0:1:56.646,211.789,26.9654,0,0.000885,0,0
0:1:58.047,213.897,27.2343,0,0.000885,0,0
0:1:59.432,216.304,27.5377,0,0.000885,0,0
0:2:0.823,219.707,27.972,0,0.000885,0,0
0:2:2.215,221.993,28.2616,0,0.000885,0,0
0:2:3.621,225.569,28.7236,0,0.000885,0,0
0:2:5.031,227.74,28.9993,0,0.000885,0,0
0:2:6.422,230.026,29.2889,0,0.000885,0,0
0:2:7.834,233.429,29.7233,0,0.000885,0,0
0:2:9.231,236.009,30.0474,0,0.000885,0,0
0:2:10.630,238.238,30.33,0,0.000885,0,0
0:2:12.025,242.05,30.8196,0,0.000885,0,0
0:2:13.431,244.043,31.0747,0,0.000885,0,0
0:2:14.817,247.094,31.4608,0,0.000885,0,0
0:2:16.219,249.674,31.7917,0,0.000885,0,0
0:2:17.611,252.49,32.1503,0,0.000885,0,0
0:2:19.014,255.248,32.5019,0,0.000885,0,0
0:2:20.413,258.295,32.888,0,0.000885,0,0
0:2:21.818,260.234,33.1362,0,0.000885,0,0
0:2:23.223,263.517,33.5499,0,0.000885,0,0
0:2:24.611,266.213,33.8946,0,0.000885,0,0
0:2:26.003,268.971,34.2463,0,0.000885,0,0
0:2:27.397,271.786,34.6048,0,0.000885,0,0
0:2:28.786,274.66,34.9702,0,0.000885,0,0
0:2:30.167,277.182,35.2943,0,0.000885,0,0
0:2:31.550,279.468,35.5838,0,0.000885,0,0
0:2:32.946,282.404,35.9562,0,0.000885,0,0
0:2:34.334,285.509,36.3492,0,0.000885,0,0
0:2:35.725,287.858,36.6525,0,0.000885,0,0
0:2:37.127,290.731,37.018,0,0.000885,0,0
0:2:38.527,293.547,37.3765,0,0.000885,0,0
0:2:39.920,296.594,37.7626,0,0.000885,0,0
0:2:41.314,299.352,38.1142,0,0.000885,0,0
0:2:42.721,301.407,38.3762,0,0.000885,0,0
0:2:44.107,304.863,38.8175,0,0.000885,0,0
0:2:45.491,307.328,39.1277,0,0.000885,0,0
0:2:46.873,309.676,39.4311,0,0.000885,0,0
0:2:48.276,312.372,39.7759,0,0.000885,0,0
0:2:49.658,314.836,40.0861,0,0.000885,0,0
0:2:51.044,317.825,40.4653,0,0.000885,0,0
0:2:52.430,320.468,40.8032,0,0.000885,0,0
0:2:53.837,323.515,41.1893,0,0.000885,0,0
0:2:55.231,326.095,41.5202,0,0.000885,0,0
0:2:56.635,329.262,41.9201,0,0.000885,0,0
0:2:58.040,331.784,42.2442,0,0.000885,0,0
0:2:59.432,334.426,42.582,0,0.000885,0,0
0:3:0.815,336.655,42.8647,0,0.000885,0,0
0:3:2.206,340.76,43.3887,0,0.000885,0,0
0:3:3.601,342.695,43.63,0,0.000885,0,0
0:3:4.985,345.511,43.9886,0,0.000885,0,0
0:3:6.368,348.443,44.3678,0,0.000885,0,0
0:3:7.765,351.374,44.7401,0,0.000885,0,0
0:3:9.157,353.251,44.9745,0,0.000885,0,0
0:3:10.541,356.009,45.3261,0,0.000885,0,0
0:3:11.930,359.585,45.7812,0,0.000885,0,0
0:3:13.328,361.814,46.0708,0,0.000885,0,0
0:3:14.743,364.163,46.3672,0,0.000885,0,0
0:3:16.133,366.978,46.7258,0,0.000885,0,0
0:3:17.540,369.732,47.0774,0,0.000885,0,0
0:3:18.930,372.663,47.4497,0,0.000885,0,0
0:3:20.326,375.772,47.8427,0,0.000885,0,0
0:3:21.726,378.588,48.2012,0,0.000885,0,0
0:3:23.129,380.581,48.4564,0,0.000885,0,0
0:3:24.545,383.868,48.8769,0,0.000885,0,0
0:3:25.928,386.39,49.1941,0,0.000885,0,0
0:3:27.331,389.264,49.5595,0,0.000885,0,0
0:3:28.730,392.022,49.9111,0,0.000885,0,0
0:3:30.132,394.895,50.2766,0,0.000885,0,0
0:3:31.515,396.71,50.511,0,0.000885,0,0
0:3:32.916,400.113,50.9454,0,0.000885,0,0
0:3:34.304,403.28,51.3453,0,0.000885,0,0
0:3:35.687,405.215,51.5935,0,0.000885,0,0
0:3:37.079,408.618,52.0278,0,0.000885,0,0
0:3:38.477,411.025,52.3312,0,0.000885,0,0
0:3:39.858,413.662,52.6691,0,0.000885,0,0
0:3:41.245,416.714,53.0552,0,0.000885,0,0
0:3:42.657,419.058,53.3585,0,0.000885,0,0
0:3:44.043,422.047,53.7377,0,0.000885,0,0
0:3:45.436,424.747,54.0825,0,0.000885,0,0
0:3:46.820,427.092,54.379,0,0.000885,0,0
0:3:48.226,430.846,54.8547,0,0.000885,0,0
0:3:49.621,432.839,55.1098,0,0.000885,0,0
0:3:51.025,436.068,55.5235,0,0.000885,0,0
0:3:52.424,438.47,55.8268,0,0.000885,0,0
0:3:53.830,441.112,56.1647,0,0.000885,0,0
0:3:55.218,443.986,56.5301,0,0.000885,0,0
0:3:56.601,446.739,56.8817,0,0.000885,0,0
0:3:58.007,449.849,57.2747,0,0.000885,0,0
0:3:59.392,452.019,57.5505,0,0.000885,0,0
0:4:0.776,454.484,57.8677,0,0.000885,0,0
0:4:2.166,457.651,58.2676,0,0.000885,0,0
0:4:3.563,460.289,58.6054,0,0.000885,0,0
0:4:4.952,462.695,58.9088,0,0.000885,0,0
0:4:6.334,466.036,59.3363,0,0.000885,0,0
0:4:7.738,468.558,59.6603,0,0.000885,0,0
0:4:9.133,471.374,60.0189,0,0.000885,0,0
0:4:10.527,473.722,60.3153,0,0.000885,0,0
0:4:11.942,477.063,60.7428,0,0.000885,0,0
0:4:13.338,479.643,61.0669,0,0.000885,0,0
0:4:14.740,482.459,61.4254,0,0.000885,0,0
0:4:16.145,484.629,61.7081,0,0.000885,0,0
0:4:17.549,488.326,62.1769,0,0.000885,0,0
0:4:18.946,490.319,62.432,0,0.000885,0,0
0:4:20.335,493.486,62.8319,0,0.000885,0,0
0:4:21.733,496.123,63.1698,0,0.000885,0,0
0:4:23.136,498.703,63.4938,0,0.000885,0,0
0:4:24.521,501.226,63.8179,0,0.000885,0,0
0:4:25.902,503.868,64.1557,0,0.000885,0,0
0:4:27.299,506.857,64.5349,0,0.000885,0,0
0:4:28.697,510.024,64.9417,0,0.000885,0,0
0:4:30.077,512.311,65.2313,0,0.000885,0,0
0:4:31.467,515.536,65.6381,0,0.000885,0,0
0:4:32.873,518.351,65.9966,0,0.000885,0,0
0:4:34.258,520.406,66.2586,0,0.000885,0,0
0:4:35.638,523.458,66.6516,0,0.000885,0,0
0:4:37.038,526.683,67.0584,0,0.000885,0,0
0:4:38.438,528.382,67.279,0,0.000885,0,0
0:4:39.832,531.313,67.6514,0,0.000885,0,0
0:4:41.223,534.187,68.0168,0,0.000885,0,0
0:4:42.626,537.06,68.3822,0,0.000885,0,0
0:4:44.013,539.409,68.6787,0,0.000885,0,0
0:4:45.392,542.283,69.0441,0,0.000885,0,0
0:4:46.781,545.334,69.4371,0,0.000885,0,0
0:4:48.186,547.856,69.7543,0,0.000885,0,0
0:4:49.568,550.903,70.1404,0,0.000885,0,0
0:4:50.950,553.541,70.4782,0,0.000885,0,0
0:4:52.356,556.063,70.8023,0,0.000885,0,0
0:4:53.742,558.879,71.1608,0,0.000885,0,0
0:4:55.141,561.521,71.4917,0,0.000885,0,0
0:4:56.541,564.51,71.8778,0,0.000885,0,0
0:4:57.947,567.326,72.2364,0,0.000885,0,0
0:4:59.348,569.67,72.5328,0,0.000885,0,0
0:5:0.747,572.78,72.9258,0,0.000885,0,0
0:5:2.156,575.653,73.2913,0,0.000885,0,0
0:5:3.553,578.411,73.6429,0,0.000885,0,0
0:5:4.950,581.111,73.9876,0,0.000885,0,0
0:5:6.337,583.865,74.3393,0,0.000885,0,0
0:5:7.743,586.565,74.684,0,0.000885,0,0
0:5:9.144,588.851,74.9736,0,0.000885,0,0
0:5:10.528,591.667,75.3321,0,0.000885,0,0
0:5:11.944,594.954,75.7527,0,0.000885,0,0
0:5:13.344,597.418,76.063,0,0.000885,0,0
0:5:14.741,600.354,76.4422,0,0.000885,0,0
0:5:16.141,602.876,76.7593,0,0.000885,0,0
0:5:17.555,605.812,77.1316,0,0.000885,0,0
0:5:18.946,608.103,77.4281,0,0.000885,0,0
0:5:20.332,610.038,77.6694,0,0.000885,0,0
0:5:21.747,613.152,78.0693,0,0.000885,0,0
0:5:23.158,603.112,76.7938,0,0.000885,0,0
0:5:24.536,514.717,65.5347,0,0.000885,0,0
0:5:25.923,513.836,65.4244,0,0.000885,0,0
0:5:26.253,433.074,55.1443,0,0.000885,0,0