File: DataFile2021-07-25_065850.csv
Test ID:,Date Tested:,Time:,Test Type:,Diameter Avg. (mm):,Cyl. Corr. Factor:,Height (mm):,Age (days):,Weight (kN):,Break Type:,Ramp Rate (MPa/s):,Load at Break (kN):,Stress at Break (MPa):
12,7/25/2021,06:58,Cylinder,100,1,200,0,3.5,3,0.32,266.27,33.9
Sample Time,Load (kN),Stress (MPa),Long. Strain,Trans. Strain,Chan1 Deflection (mm),Chan2 Deflection (mm)
0:0:13.884,8.67848,1.10316,0,0.000885,0,0
0:0:14.379,13.3714,1.70301,0,0.000885,0,0
0:0:14.876,12.9043,1.64095,0,0.000885,0,0
0:0:15.373,12.6107,1.60648,0,0.000885,0,0
0:0:15.870,12.2015,1.55132,0,0.000885,0,0
0:0:16.364,12.375,1.5789,0,0.000885,0,0
0:0:16.860,12.375,1.5789,0,0.000885,0,0
0:0:17.356,12.6685,1.61337,0,0.000885,0,0
0:0:17.852,14.2521,1.81332,0,0.000885,0,0
0:0:18.360,16.2449,2.06843,0,0.000885,0,0
0:0:18.857,18.1799,2.31664,0,0.000885,0,0
0:0:19.358,19.6478,2.5028,0,0.000885,0,0
0:0:19.867,21.4671,2.73032,0,0.000885,0,0
0:0:20.373,22.3479,2.84753,0,0.000885,0,0
0:0:20.876,24.5141,3.12333,0,0.000885,0,0
0:0:21.374,25.8664,3.29569,0,0.000885,0,0
0:0:21.872,27.3877,3.48875,0,0.000885,0,0
0:0:22.371,29.3271,3.73696,0,0.000885,0,0
0:0:22.867,29.9721,3.8128,0,0.000885,0,0
0:0:23.365,31.8493,4.05412,0,0.000885,0,0
0:0:23.864,33.3127,4.24028,0,0.000885,0,0
0:0:24.361,34.1935,4.35059,0,0.000885,0,0
0:0:24.868,35.1899,4.48159,0,0.000885,0,0
0:0:25.374,36.7156,4.67465,0,0.000885,0,0
0:0:25.878,37.89,4.82633,0,0.000885,0,0
0:0:26.375,38.8285,4.94354,0,0.000885,0,0
0:0:26.874,40.8213,5.19865,0,0.000885,0,0
0:0:27.371,41.7599,5.31586,0,0.000885,0,0
0:0:27.868,43.4013,5.5227,0,0.000885,0,0
0:0:28.365,44.8692,5.71575,0,0.000885,0,0
0:0:28.862,46.5684,5.92949,0,0.000885,0,0
0:0:29.369,48.0942,6.12254,0,0.000885,0,0
0:0:29.875,49.4998,6.30181,0,0.000885,0,0
0:0:30.379,50.4384,6.41902,0,0.000885,0,0
0:0:30.877,51.9063,6.61207,0,0.000885,0,0
0:0:31.374,53.1963,6.77065,0,0.000885,0,0
0:0:31.873,54.2505,6.90855,0,0.000885,0,0
0:0:32.370,56.1277,7.14986,0,0.000885,0,0
0:0:32.869,57.1863,7.28086,0,0.000885,0,0
0:0:33.366,58.8856,7.4946,0,0.000885,0,0
0:0:33.865,60.2912,7.67386,0,0.000885,0,0
0:0:34.370,61.0563,7.77039,0,0.000885,0,0
0:0:34.879,62.9334,8.01171,0,0.000885,0,0
0:0:35.382,64.3391,8.19097,0,0.000885,0,0
0:0:35.881,65.9226,8.39092,0,0.000885,0,0
0:0:36.381,66.9769,8.52881,0,0.000885,0,0
0:0:36.878,68.2713,8.69429,0,0.000885,0,0
0:0:37.376,70.0862,8.92182,0,0.000885,0,0
0:0:37.871,71.1449,9.05971,0,0.000885,0,0
0:0:38.371,72.5505,9.23897,0,0.000885,0,0
0:0:38.869,74.4276,9.4734,0,0.000885,0,0
0:0:39.366,74.8947,9.53545,0,0.000885,0,0
0:0:39.874,76.4783,9.7354,0,0.000885,0,0
0:0:40.380,77.8884,9.91466,0,0.000885,0,0
0:0:40.885,79.1783,10.0801,0,0.000885,0,0
0:0:41.382,80.4683,10.2456,0,0.000885,0,0
0:0:41.882,82.1097,10.4525,0,0.000885,0,0
0:0:42.379,83.8134,10.6731,0,0.000885,0,0
0:0:42.878,85.1034,10.8386,0,0.000885,0,0
0:0:43.373,86.5668,11.0247,0,0.000885,0,0
0:0:43.871,87.3898,11.1281,0,0.000885,0,0
0:0:44.368,88.8577,11.3143,0,0.000885,0,0
0:0:44.875,90.3211,11.5005,0,0.000885,0,0
0:0:45.382,91.4955,11.6521,0,0.000885,0,0
0:0:45.885,93.3148,11.8797,0,0.000885,0,0
0:0:46.384,94.6048,12.0451,0,0.000885,0,0
0:0:46.882,95.7168,12.1899,0,0.000885,0,0
0:0:47.379,97.6518,12.4312,0,0.000885,0,0
0:0:47.878,98.5326,12.5485,0,0.000885,0,0
0:0:48.376,100.41,12.7829,0,0.000885,0,0
0:0:48.873,101.522,12.9277,0,0.000885,0,0
0:0:49.370,102.58,13.0587,0,0.000885,0,0
0:0:49.878,103.986,13.2379,0,0.000885,0,0
0:0:50.384,105.512,13.431,0,0.000885,0,0
0:0:50.890,106.628,13.5758,0,0.000885,0,0
0:0:51.389,108.092,13.7619,0,0.000885,0,0
0:0:51.886,109.618,13.955,0,0.000885,0,0
0:0:52.384,111.673,14.217,0,0.000885,0,0
0:0:52.882,111.904,14.2515,0,0.000885,0,0
0:0:53.380,113.545,14.4583,0,0.000885,0,0
0:0:53.877,115.013,14.6445,0,0.000885,0,0
0:0:54.383,116.303,14.8099,0,0.000885,0,0
0:0:54.891,118.007,15.0237,0,0.000885,0,0
0:0:55.394,119.528,15.2167,0,0.000885,0,0
0:0:55.893,120.702,15.3684,0,0.000885,0,0
0:0:56.391,122.228,15.5615,0,0.000885,0,0
0:0:56.887,123.225,15.6925,0,0.000885,0,0
0:0:57.386,124.924,15.9062,0,0.000885,0,0
0:0:57.882,125.925,16.0303,0,0.000885,0,0
0:0:58.380,127.388,16.2165,0,0.000885,0,0
0:0:58.878,128.678,16.3819,0,0.000885,0,0
0:0:59.385,130.204,16.575,0,0.000885,0,0
0:0:59.892,131.436,16.7336,0,0.000885,0,0
0:1:0.396,132.904,16.9197,0,0.000885,0,0
0:1:0.894,134.074,17.0714,0,0.000885,0,0
0:1:1.393,135.893,17.3058,0,0.000885,0,0
0:1:1.891,137.361,17.492,0,0.000885,0,0
0:1:2.386,138.709,17.6575,0,0.000885,0,0
0:1:2.886,139.763,17.7954,0,0.000885,0,0
0:1:3.381,141.582,18.0298,0,0.000885,0,0
0:1:3.881,142.405,18.1332,0,0.000885,0,0
0:1:4.382,144.047,18.3401,0,0.000885,0,0
0:1:4.891,145.395,18.5124,0,0.000885,0,0
0:1:5.396,147.036,18.7193,0,0.000885,0,0
0:1:5.898,148.562,18.9123,0,0.000885,0,0
0:1:6.394,149.558,19.0433,0,0.000885,0,0
0:1:6.893,151.435,19.2846,0,0.000885,0,0
0:1:7.390,152.196,19.3812,0,0.000885,0,0
0:1:7.886,153.428,19.5328,0,0.000885,0,0
0:1:8.384,154.66,19.6914,0,0.000885,0,0
0:1:8.882,155.892,19.85,0,0.000885,0,0
0:1:9.382,157.654,20.0706,0,0.000885,0,0
0:1:9.891,159.002,20.243,0,0.000885,0,0
0:1:10.396,160.701,20.4636,0,0.000885,0,0
0:1:10.900,161.639,20.5809,0,0.000885,0,0
0:1:11.397,162.698,20.7119,0,0.000885,0,0
0:1:11.893,164.162,20.9049,0,0.000885,0,0
0:1:12.391,165.745,21.1049,0,0.000885,0,0
0:1:12.890,167.155,21.2841,0,0.000885,0,0
0:1:13.385,168.97,21.5116,0,0.000885,0,0
0:1:13.882,170.144,21.6633,0,0.000885,0,0
0:1:14.379,171.434,21.8288,0,0.000885,0,0
0:1:14.886,173.312,22.0701,0,0.000885,0,0
0:1:15.391,174.308,22.1942,0,0.000885,0,0
0:1:15.897,175.54,22.3528,0,0.000885,0,0
0:1:16.393,177.244,22.5665,0,0.000885,0,0
0:1:16.890,178.356,22.7113,0,0.000885,0,0
0:1:17.385,179.766,22.8906,0,0.000885,0,0
0:1:17.883,180.82,23.0216,0,0.000885,0,0
0:1:18.379,182.462,23.2284,0,0.000885,0,0
0:1:18.877,183.4,23.3525,0,0.000885,0,0
0:1:19.384,185.277,23.587,0,0.000885,0,0
0:1:19.890,186.683,23.7662,0,0.000885,0,0
0:1:20.396,187.915,23.9248,0,0.000885,0,0
0:1:20.895,189.325,24.1041,0,0.000885,0,0
0:1:21.392,190.615,24.2695,0,0.000885,0,0
0:1:21.891,192.372,24.4971,0,0.000885,0,0
0:1:22.385,193.253,24.6074,0,0.000885,0,0
0:1:22.881,194.952,24.8211,0,0.000885,0,0
0:1:23.373,196.536,25.0211,0,0.000885,0,0
0:1:23.868,197.474,25.1452,0,0.000885,0,0
0:1:24.365,198.884,25.3244,0,0.000885,0,0
0:1:24.871,200.117,25.4761,0,0.000885,0,0
0:1:25.371,201.642,25.6761,0,0.000885,0,0
0:1:25.871,203.164,25.8691,0,0.000885,0,0
0:1:26.368,204.689,26.0622,0,0.000885,0,0
0:1:26.858,205.512,26.1656,0,0.000885,0,0
0:1:27.364,207.154,26.3724,0,0.000885,0,0
0:1:27.856,208.444,26.5379,0,0.000885,0,0
0:1:28.350,209.382,26.662,0,0.000885,0,0
0:1:28.854,210.908,26.8551,0,0.000885,0,0
0:1:29.347,212.371,27.0412,0,0.000885,0,0
0:1:29.850,214.075,27.255,0,0.000885,0,0
0:1:30.352,215.423,27.4273,0,0.000885,0,0
0:1:30.853,216.771,27.5997,0,0.000885,0,0
0:1:31.357,218.417,27.8066,0,0.000885,0,0
0:1:31.850,219.119,27.8962,0,0.000885,0,0
0:1:32.353,220.761,28.1099,0,0.000885,0,0
0:1:32.858,222.287,28.303,0,0.000885,0,0
0:1:33.350,223.519,28.4616,0,0.000885,0,0
0:1:33.844,225.04,28.6546,0,0.000885,0,0
0:1:34.346,226.156,28.7925,0,0.000885,0,0
0:1:34.849,226.979,28.9028,0,0.000885,0,0
0:1:35.350,228.736,29.1235,0,0.000885,0,0
0:1:35.845,230.084,29.2958,0,0.000885,0,0
0:1:36.349,231.494,29.4751,0,0.000885,0,0
0:1:36.853,233.078,29.675,0,0.000885,0,0
0:1:37.347,234.31,29.8336,0,0.000885,0,0
0:1:37.853,235.542,29.9922,0,0.000885,0,0
0:1:38.347,237.006,30.1784,0,0.000885,0,0
0:1:38.843,238.474,30.3645,0,0.000885,0,0
0:1:39.340,239.706,30.5231,0,0.000885,0,0
0:1:39.844,240.818,30.661,0,0.000885,0,0
0:1:40.344,242.521,30.8816,0,0.000885,0,0
0:1:40.841,243.634,31.0195,0,0.000885,0,0
0:1:41.338,245.044,31.1988,0,0.000885,0,0
0:1:41.830,246.449,31.378,0,0.000885,0,0
0:1:42.326,247.917,31.5642,0,0.000885,0,0
0:1:42.819,249.149,31.7228,0,0.000885,0,0
0:1:43.316,250.555,31.902,0,0.000885,0,0
0:1:43.808,251.729,32.0537,0,0.000885,0,0
0:1:44.302,253.544,32.2813,0,0.000885,0,0
0:1:44.807,254.776,32.4398,0,0.000885,0,0
0:1:45.307,256.186,32.6191,0,0.000885,0,0
0:1:45.810,257.534,32.7915,0,0.000885,0,0
0:1:46.301,258.121,32.8673,0,0.000885,0,0
0:1:46.798,259.411,33.0259,0,0.000885,0,0
0:1:47.290,260.701,33.1914,0,0.000885,0,0
0:1:47.783,261.582,33.3086,0,0.000885,0,0
0:1:48.276,262.872,33.4672,0,0.000885,0,0
0:1:53.734,194.601,24.7798,0,0.000885,0,0
0:1:49.071,264.398,33.6671,0,0.000885,0,0
0:1:49.575,264.923,33.7292,0,0.000885,0,0
0:1:50.075,266.039,33.8739,0,0.000885,0,0
0:1:50.573,266.275,33.9015,0,0.000885,0,0
0:1:51.067,265.803,33.8464,0,0.000885,0,0
0:1:51.558,264.629,33.6947,0,0.000885,0,0
0:1:52.050,260.759,33.1983,0,0.000885,0,0
0:1:52.550,254.016,32.3433,0,0.000885,0,0
0:1:53.044,238.238,30.33,0,0.000885,0,0
0:1:53.536,209.912,26.7241,0,0.000885,0,0
0:1:53.636,209.912,26.7241,0,0.000885,0,0