File: DataFile2021-07-03_083004.csv
Test ID:,Date Tested:,Time:,Test Type:,Diameter Avg. (mm):,Cyl. Corr. Factor:,Height (mm):,Age (days):,Weight (kN):,Break Type:,Ramp Rate (MPa/s):,Load at Break (kN):,Stress at Break (MPa):
12,7/3/2021,08:30,Cylinder,100,1,200,0,3.6,Invalid/No Break,0.25,681.65,86.79
Sample Time,Load (kN),Stress (MPa),Long. Strain,Trans. Strain,Chan1 Deflection (mm),Chan2 Deflection (mm)
0:0:16.139,5.21776,0.661897,0,0.000885,0,0
0:0:17.661,9.67933,1.23416,0,0.000885,0,0
0:0:19.160,11.4942,1.46169,0,0.000885,0,0
0:0:20.665,13.3135,1.69611,0,0.000885,0,0
0:0:22.172,16.365,2.08222,0,0.000885,0,0
0:0:23.671,19.9414,2.53727,0,0.000885,0,0
0:0:25.162,23.1663,2.95096,0,0.000885,0,0
0:0:26.670,25.8664,3.29569,0,0.000885,0,0
0:0:28.181,28.9134,3.6818,0,0.000885,0,0
0:0:29.674,31.6713,4.03343,0,0.000885,0,0
0:0:31.166,34.3091,4.37128,0,0.000885,0,0
0:0:32.677,37.712,4.79875,0,0.000885,0,0
0:0:34.173,40.5856,5.16417,0,0.000885,0,0
0:0:35.667,43.6371,5.55717,0,0.000885,0,0
0:0:37.180,46.6263,5.93639,0,0.000885,0,0
0:0:38.686,49.6199,6.3156,0,0.000885,0,0
0:0:40.179,52.5513,6.68791,0,0.000885,0,0
0:0:41.671,55.1891,7.02576,0,0.000885,0,0
0:0:43.185,57.8313,7.3636,0,0.000885,0,0
0:0:44.678,61.4655,7.82555,0,0.000885,0,0
0:0:46.171,63.9298,8.14271,0,0.000885,0,0
0:0:47.678,66.919,8.52192,0,0.000885,0,0
0:0:49.179,69.5613,8.85976,0,0.000885,0,0
0:0:50.669,73.0798,9.30792,0,0.000885,0,0
0:0:52.179,75.6598,9.63198,0,0.000885,0,0
0:0:53.677,78.649,10.0112,0,0.000885,0,0
0:0:55.170,82.0519,10.4456,0,0.000885,0,0
0:0:56.667,84.3961,10.7489,0,0.000885,0,0
0:0:58.180,87.9191,11.1971,0,0.000885,0,0
0:0:59.674,89.9119,11.4453,0,0.000885,0,0
0:1:1.166,93.6662,11.9279,0,0.000885,0,0
0:1:2.676,96.4197,12.2796,0,0.000885,0,0
0:1:4.175,99.2932,12.645,0,0.000885,0,0
0:1:5.665,102.523,13.0518,0,0.000885,0,0
0:1:7.174,105.512,13.431,0,0.000885,0,0
0:1:8.682,107.976,13.7481,0,0.000885,0,0
0:1:10.172,111.379,14.1825,0,0.000885,0,0
0:1:11.672,113.901,14.4997,0,0.000885,0,0
0:1:13.177,117.593,14.9754,0,0.000885,0,0
0:1:14.670,120.293,15.3133,0,0.000885,0,0
0:1:16.169,122.58,15.6097,0,0.000885,0,0
0:1:17.680,126.04,16.051,0,0.000885,0,0
0:1:19.176,128.678,16.3819,0,0.000885,0,0
0:1:20.669,132.023,16.8094,0,0.000885,0,0
0:1:22.179,134.074,17.0714,0,0.000885,0,0
0:1:23.686,137.77,17.5403,0,0.000885,0,0
0:1:25.177,140.76,17.9195,0,0.000885,0,0
0:1:26.675,143.989,18.3332,0,0.000885,0,0
0:1:28.183,146.862,18.6986,0,0.000885,0,0
0:1:29.672,149.149,18.9882,0,0.000885,0,0
0:1:31.172,152.903,19.4708,0,0.000885,0,0
0:1:32.686,155.541,19.8017,0,0.000885,0,0
0:1:34.179,158.592,20.1947,0,0.000885,0,0
0:1:35.671,161.346,20.5464,0,0.000885,0,0
0:1:37.176,164.162,20.9049,0,0.000885,0,0
0:1:38.678,167.387,21.3117,0,0.000885,0,0
0:1:40.172,169.793,21.622,0,0.000885,0,0
0:1:41.674,172.845,22.0081,0,0.000885,0,0
0:1:43.187,175.834,22.3873,0,0.000885,0,0
0:1:44.677,178.765,22.7596,0,0.000885,0,0
0:1:46.169,182.226,23.2009,0,0.000885,0,0
0:1:47.676,184.748,23.5249,0,0.000885,0,0
0:1:49.174,188.444,23.9938,0,0.000885,0,0
0:1:50.662,190.379,24.242,0,0.000885,0,0
0:1:52.169,194.192,24.7246,0,0.000885,0,0
0:1:53.663,196.011,24.959,0,0.000885,0,0
0:1:55.174,198.942,25.3313,0,0.000885,0,0
0:1:56.673,202.287,25.7588,0,0.000885,0,0
0:1:58.172,205.628,26.1794,0,0.000885,0,0
0:1:59.671,208.444,26.5379,0,0.000885,0,0
0:2:1.172,210.788,26.8413,0,0.000885,0,0
0:2:2.673,214.72,27.3377,0,0.000885,0,0
0:2:4.178,216.949,27.6204,0,0.000885,0,0
0:2:5.659,220,28.0134,0,0.000885,0,0
0:2:7.157,223.167,28.4133,0,0.000885,0,0
0:2:8.650,226.392,28.827,0,0.000885,0,0
0:2:10.160,228.501,29.0959,0,0.000885,0,0
0:2:11.670,231.668,29.4958,0,0.000885,0,0
0:2:13.172,235.013,29.9232,0,0.000885,0,0
0:2:14.660,237.709,30.268,0,0.000885,0,0
0:2:16.160,240.057,30.5645,0,0.000885,0,0
0:2:17.664,243.869,31.0471,0,0.000885,0,0
0:2:19.167,246.801,31.4263,0,0.000885,0,0
0:2:20.671,249.968,31.8262,0,0.000885,0,0
0:2:22.181,252.899,32.1985,0,0.000885,0,0
0:2:23.675,255.951,32.5915,0,0.000885,0,0
0:2:25.174,259.06,32.9845,0,0.000885,0,0
0:2:26.672,260.995,33.2327,0,0.000885,0,0
0:2:28.178,263.459,33.543,0,0.000885,0,0
0:2:29.675,267.738,34.0877,0,0.000885,0,0
0:2:31.164,270.612,34.4531,0,0.000885,0,0
0:2:32.667,272.547,34.7013,0,0.000885,0,0
0:2:34.169,275.776,35.115,0,0.000885,0,0
0:2:35.669,279.175,35.5425,0,0.000885,0,0
0:2:37.174,281.817,35.8803,0,0.000885,0,0
0:2:38.677,285.042,36.294,0,0.000885,0,0
0:2:40.175,288.445,36.7284,0,0.000885,0,0
0:2:41.664,290.847,37.0317,0,0.000885,0,0
0:2:43.169,293.721,37.3972,0,0.000885,0,0
0:2:44.679,296.83,37.7902,0,0.000885,0,0
0:2:46.177,298.765,38.0384,0,0.000885,0,0
0:2:47.679,302.11,38.4659,0,0.000885,0,0
0:2:49.168,305.98,38.9554,0,0.000885,0,0
0:2:50.679,308.618,39.2932,0,0.000885,0,0
0:2:52.178,311.553,39.6655,0,0.000885,0,0
0:2:53.678,314.076,39.9896,0,0.000885,0,0
0:2:55.177,317.768,40.4584,0,0.000885,0,0
0:2:56.666,320.174,40.7687,0,0.000885,0,0
0:2:58.167,323.341,41.1686,0,0.000885,0,0
0:2:59.667,326.682,41.5961,0,0.000885,0,0
0:3:1.178,329.324,41.9339,0,0.000885,0,0
0:3:2.684,332.255,42.3062,0,0.000885,0,0
0:3:4.170,335.071,42.6648,0,0.000885,0,0
0:3:5.667,337.767,43.0026,0,0.000885,0,0
0:3:7.167,341.054,43.4232,0,0.000885,0,0
0:3:8.671,344.337,43.8438,0,0.000885,0,0
0:3:10.159,346.272,44.092,0,0.000885,0,0
0:3:11.681,349.145,44.4574,0,0.000885,0,0
0:3:13.177,352.197,44.8435,0,0.000885,0,0
0:3:14.678,355.951,45.3192,0,0.000885,0,0
0:3:16.166,358.705,45.6709,0,0.000885,0,0
0:3:17.670,361.169,45.988,0,0.000885,0,0
0:3:19.173,364.042,46.3535,0,0.000885,0,0
0:3:20.672,367.388,46.774,0,0.000885,0,0
0:3:22.167,370.497,47.1739,0,0.000885,0,0
0:3:23.669,373.135,47.5118,0,0.000885,0,0
0:3:25.181,376.831,47.9806,0,0.000885,0,0
0:3:26.680,379.291,48.2909,0,0.000885,0,0
0:3:28.185,382.049,48.6425,0,0.000885,0,0
0:3:29.664,384.807,48.9941,0,0.000885,0,0
0:3:31.171,388.383,49.4492,0,0.000885,0,0
0:3:32.675,390.732,49.7526,0,0.000885,0,0
0:3:34.174,393.894,50.1525,0,0.000885,0,0
0:3:35.675,396.888,50.5317,0,0.000885,0,0
0:3:37.171,399.352,50.8488,0,0.000885,0,0
0:3:38.668,402.813,51.2901,0,0.000885,0,0
0:3:40.170,406.038,51.6969,0,0.000885,0,0
0:3:41.652,408.44,52.0072,0,0.000885,0,0
0:3:43.156,411.314,52.3726,0,0.000885,0,0
0:3:44.667,413.898,52.6966,0,0.000885,0,0
0:3:46.174,417.474,53.1517,0,0.000885,0,0
0:3:47.671,420.464,53.5378,0,0.000885,0,0
0:3:49.166,423.693,53.9446,0,0.000885,0,0
0:3:50.673,426.331,54.2824,0,0.000885,0,0
0:3:52.170,428.853,54.6065,0,0.000885,0,0
0:3:53.675,432.136,55.0202,0,0.000885,0,0
0:3:55.168,434.894,55.3718,0,0.000885,0,0
0:3:56.672,438.061,55.7786,0,0.000885,0,0
0:3:58.175,441.112,56.1647,0,0.000885,0,0
0:3:59.680,443.808,56.5094,0,0.000885,0,0
0:4:1.178,446.859,56.8955,0,0.000885,0,0
0:4:2.678,450.32,57.3368,0,0.000885,0,0
0:4:4.184,452.135,57.5712,0,0.000885,0,0
0:4:5.672,455.654,58.0125,0,0.000885,0,0
0:4:7.173,458.469,58.371,0,0.000885,0,0
0:4:8.682,461.285,58.7295,0,0.000885,0,0
0:4:10.162,464.572,59.1501,0,0.000885,0,0
0:4:11.664,467.152,59.4811,0,0.000885,0,0
0:4:13.170,470.141,59.8603,0,0.000885,0,0
0:4:14.684,473.722,60.3153,0,0.000885,0,0
0:4:16.184,476.418,60.6601,0,0.000885,0,0
0:4:17.688,479.469,61.0462,0,0.000885,0,0
0:4:19.183,482.165,61.3909,0,0.000885,0,0
0:4:20.673,485.452,61.8115,0,0.000885,0,0
0:4:22.189,488.384,62.1838,0,0.000885,0,0
0:4:23.692,491.021,62.5217,0,0.000885,0,0
0:4:25.184,494.131,62.9147,0,0.000885,0,0
0:4:26.685,497.062,63.287,0,0.000885,0,0
0:4:28.190,500.056,63.6662,0,0.000885,0,0
0:4:29.670,502.929,64.0316,0,0.000885,0,0
0:4:31.179,505.683,64.3832,0,0.000885,0,0
0:4:32.679,508.498,64.7418,0,0.000885,0,0
0:4:34.186,511.959,65.183,0,0.000885,0,0
0:4:35.675,514.366,65.4933,0,0.000885,0,0
0:4:37.186,517.591,65.9001,0,0.000885,0,0
0:4:38.679,520.7,66.3,0,0.000885,0,0
0:4:40.192,523.453,66.6516,0,0.000885,0,0
0:4:41.677,526.447,67.0308,0,0.000885,0,0
0:4:43.190,529.263,67.3894,0,0.000885,0,0
0:4:44.670,532.136,67.7548,0,0.000885,0,0
0:4:46.190,534.894,68.1064,0,0.000885,0,0
0:4:47.691,538.355,68.5477,0,0.000885,0,0
0:4:49.189,541.166,68.9062,0,0.000885,0,0
0:4:50.689,543.337,69.182,0,0.000885,0,0
0:4:52.188,546.918,69.637,0,0.000885,0,0
0:4:53.679,549.965,70.0232,0,0.000885,0,0
0:4:55.179,553.074,70.4162,0,0.000885,0,0
0:4:56.680,556.126,70.8092,0,0.000885,0,0
0:4:58.176,558.821,71.1539,0,0.000885,0,0
0:4:59.676,561.521,71.4917,0,0.000885,0,0
0:5:1.189,564.746,71.9054,0,0.000885,0,0
0:5:2.689,566.975,72.1881,0,0.000885,0,0
0:5:4.183,570.845,72.6845,0,0.000885,0,0
0:5:5.675,573.073,72.9672,0,0.000885,0,0
0:5:7.174,576.24,73.3671,0,0.000885,0,0
0:5:8.668,579.172,73.7394,0,0.000885,0,0
0:5:10.146,581.93,74.0911,0,0.000885,0,0
0:5:11.637,585.039,74.491,0,0.000885,0,0
0:5:13.134,588.5,74.9322,0,0.000885,0,0
0:5:14.620,591.2,75.277,0,0.000885,0,0
0:5:16.109,593.664,75.5872,0,0.000885,0,0
0:5:17.617,596.778,75.9871,0,0.000885,0,0
0:5:19.108,599.829,76.3732,0,0.000885,0,0
0:5:20.597,602.351,76.6973,0,0.000885,0,0
0:5:22.094,605.523,77.0972,0,0.000885,0,0
0:5:23.593,608.281,77.4488,0,0.000885,0,0
0:5:25.078,611.217,77.8211,0,0.000885,0,0
0:5:26.582,613.508,78.1107,0,0.000885,0,0
0:5:28.087,617.026,78.5658,0,0.000885,0,0
0:5:29.574,619.495,78.876,0,0.000885,0,0
0:5:31.066,622.546,79.2621,0,0.000885,0,0
0:5:32.576,625.069,79.5862,0,0.000885,0,0
0:5:34.080,628.592,80.0343,0,0.000885,0,0
0:5:35.569,631.176,80.3653,0,0.000885,0,0
0:5:37.069,633.876,80.71,0,0.000885,0,0
0:5:38.570,636.692,81.0686,0,0.000885,0,0
0:5:40.081,639.04,81.365,0,0.000885,0,0
0:5:41.578,641.74,81.7098,0,0.000885,0,0
0:5:43.091,644.441,82.0545,0,0.000885,0,0
0:5:44.587,647.376,82.4268,0,0.000885,0,0
0:5:46.086,649.725,82.7233,0,0.000885,0,0
0:5:47.602,653.306,83.1784,0,0.000885,0,0
0:5:49.094,656.593,83.5989,0,0.000885,0,0
0:5:50.594,659.88,84.0195,0,0.000885,0,0
0:5:52.109,663.75,84.509,0,0.000885,0,0
0:5:53.608,667.038,84.9296,0,0.000885,0,0
0:5:55.098,670.267,85.3433,0,0.000885,0,0
0:5:56.601,673.848,85.7984,0,0.000885,0,0
0:5:58.112,677.135,86.2189,0,0.000885,0,0
0:5:59.598,678.661,86.412,0,0.000885,0,0
0:6:1.098,681.361,86.7567,0,0.000885,0,0
0:6:2.604,675.08,85.9569,0,0.000885,0,0
0:6:4.094,541.051,68.8855,0,0.000885,0,0
0:6:4.357,530.726,67.5755,0,0.000885,0,0