File: DataFile2021-07-25_070651.csv
Test ID:,Date Tested:,Time:,Test Type:,Diameter Avg. (mm):,Cyl. Corr. Factor:,Height (mm):,Age (days):,Weight (kN):,Break Type:,Ramp Rate (MPa/s):,Load at Break (kN):,Stress at Break (MPa):
12,7/25/2021,07:06,Cylinder,100,1,200,0,3.5,3,0.32,212.55,27.06
Sample Time,Load (kN),Stress (MPa),Long. Strain,Trans. Strain,Chan1 Deflection (mm),Chan2 Deflection (mm)
0:0:15.633,5.57362,0.71016,0,0.000885,0,0
0:0:16.033,8.97206,1.14453,0,0.000885,0,0
0:0:16.444,10.1464,1.28932,0,0.000885,0,0
0:0:16.848,10.0307,1.27553,0,0.000885,0,0
0:0:17.243,9.91064,1.26174,0,0.000885,0,0
0:0:17.639,9.55923,1.22037,0,0.000885,0,0
0:0:18.049,11.4364,1.45479,0,0.000885,0,0
0:0:18.446,12.6107,1.60648,0,0.000885,0,0
0:0:18.843,13.9007,1.77195,0,0.000885,0,0
0:0:19.237,14.5457,1.85469,0,0.000885,0,0
0:0:19.648,16.1871,2.06153,0,0.000885,0,0
0:0:20.046,17.2413,2.19253,0,0.000885,0,0
0:0:20.453,17.8285,2.26838,0,0.000885,0,0
0:0:20.848,18.945,2.41317,0,0.000885,0,0
0:0:21.252,20.1771,2.57174,0,0.000885,0,0
0:0:21.659,21.347,2.71653,0,0.000885,0,0
0:0:22.062,22.6993,2.8889,0,0.000885,0,0
0:0:22.464,24.0471,3.06127,0,0.000885,0,0
0:0:22.865,25.1013,3.19917,0,0.000885,0,0
0:0:23.262,26.0977,3.32327,0,0.000885,0,0
0:0:23.663,27.3299,3.48185,0,0.000885,0,0
0:0:24.061,28.6199,3.64733,0,0.000885,0,0
0:0:24.456,30.1456,3.84038,0,0.000885,0,0
0:0:24.855,31.142,3.96449,0,0.000885,0,0
0:0:25.254,32.3742,4.12306,0,0.000885,0,0
0:0:25.654,33.6063,4.28164,0,0.000885,0,0
0:0:26.052,34.3091,4.37128,0,0.000885,0,0
0:0:26.457,35.4835,4.51607,0,0.000885,0,0
0:0:26.862,36.422,4.64017,0,0.000885,0,0
0:0:27.265,37.5341,4.77807,0,0.000885,0,0
0:0:27.667,38.4727,4.90217,0,0.000885,0,0
0:0:28.065,39.7048,5.05386,0,0.000885,0,0
0:0:28.462,40.6434,5.17796,0,0.000885,0,0
0:0:28.860,41.2306,5.24691,0,0.000885,0,0
0:0:29.261,42.872,5.46065,0,0.000885,0,0
0:0:29.659,44.3977,5.6537,0,0.000885,0,0
0:0:30.055,45.8078,5.83296,0,0.000885,0,0
0:0:30.451,46.1014,5.86744,0,0.000885,0,0
0:0:30.851,47.8584,6.09497,0,0.000885,0,0
0:0:31.252,48.152,6.12944,0,0.000885,0,0
0:0:31.658,49.8512,6.35007,0,0.000885,0,0
0:0:32.062,50.2649,6.39833,0,0.000885,0,0
0:0:32.464,51.7862,6.59139,0,0.000885,0,0
0:0:32.864,52.3734,6.66723,0,0.000885,0,0
0:0:33.266,53.432,6.80513,0,0.000885,0,0
0:0:33.662,54.1927,6.90165,0,0.000885,0,0
0:0:34.058,55.8919,7.11539,0,0.000885,0,0
0:0:34.456,57.0662,7.26707,0,0.000885,0,0
0:0:34.856,57.947,7.37739,0,0.000885,0,0
0:0:35.256,59.6462,7.59113,0,0.000885,0,0
0:0:35.651,60.8205,7.74281,0,0.000885,0,0
0:0:36.055,61.6435,7.84623,0,0.000885,0,0
0:0:36.461,62.4619,7.94966,0,0.000885,0,0
0:0:36.863,63.7519,8.11513,0,0.000885,0,0
0:0:37.266,64.7483,8.24613,0,0.000885,0,0
0:0:37.663,65.9226,8.39092,0,0.000885,0,0
0:0:38.061,66.6877,8.48745,0,0.000885,0,0
0:0:38.463,67.7998,8.63224,0,0.000885,0,0
0:0:38.860,69.7348,8.88045,0,0.000885,0,0
0:0:39.258,70.789,9.01145,0,0.000885,0,0
0:0:39.655,71.4384,9.09418,0,0.000885,0,0
0:0:40.053,72.5505,9.23897,0,0.000885,0,0
0:0:40.453,73.6047,9.36998,0,0.000885,0,0
0:0:40.850,74.4276,9.4734,0,0.000885,0,0
0:0:41.256,75.5397,9.61819,0,0.000885,0,0
0:0:41.661,76.4204,9.7285,0,0.000885,0,0
0:0:42.064,77.6526,9.88708,0,0.000885,0,0
0:0:42.469,79.1205,10.0732,0,0.000885,0,0
0:0:42.864,80.2326,10.218,0,0.000885,0,0
0:0:43.260,81.2912,10.349,0,0.000885,0,0
0:0:43.660,81.9941,10.4387,0,0.000885,0,0
0:0:44.060,83.2262,10.5972,0,0.000885,0,0
0:0:44.456,84.6897,10.7834,0,0.000885,0,0
0:0:44.852,85.6283,10.9006,0,0.000885,0,0
0:0:45.253,86.8026,11.0523,0,0.000885,0,0
0:0:45.652,87.7412,11.1695,0,0.000885,0,0
0:0:46.050,89.0312,11.335,0,0.000885,0,0
0:0:46.457,89.9697,11.4522,0,0.000885,0,0
0:0:46.859,90.7927,11.5625,0,0.000885,0,0
0:0:47.263,91.9625,11.7073,0,0.000885,0,0
0:0:47.665,92.9011,11.8314,0,0.000885,0,0
0:0:48.063,94.4847,12.0314,0,0.000885,0,0
0:0:48.459,95.2498,12.1279,0,0.000885,0,0
0:0:48.857,96.3618,12.2727,0,0.000885,0,0
0:0:49.260,97.8876,12.4657,0,0.000885,0,0
0:0:49.656,99.0619,12.6105,0,0.000885,0,0
0:0:50.053,100.232,12.7622,0,0.000885,0,0
0:0:50.449,101.522,12.9277,0,0.000885,0,0
0:0:50.850,102.638,13.0656,0,0.000885,0,0
0:0:51.249,103.11,13.1276,0,0.000885,0,0
0:0:51.656,104.106,13.2517,0,0.000885,0,0
0:0:52.060,105.045,13.3758,0,0.000885,0,0
0:0:52.464,106.215,13.5206,0,0.000885,0,0
0:0:52.865,107.211,13.6516,0,0.000885,0,0
0:0:53.263,108.505,13.8171,0,0.000885,0,0
0:0:53.659,110.027,14.0101,0,0.000885,0,0
0:0:54.055,110.792,14.1067,0,0.000885,0,0
0:0:54.456,111.73,14.2239,0,0.000885,0,0
0:0:54.855,113.02,14.3894,0,0.000885,0,0
0:0:55.251,114.546,14.5824,0,0.000885,0,0
0:0:55.647,115.543,14.7134,0,0.000885,0,0
0:0:56.052,116.597,14.8444,0,0.000885,0,0
0:0:56.458,118.065,15.0306,0,0.000885,0,0
0:0:56.862,118.941,15.1409,0,0.000885,0,0
0:0:57.265,119.528,15.2167,0,0.000885,0,0
0:0:57.662,120.587,15.3546,0,0.000885,0,0
0:0:58.063,122.464,15.589,0,0.000885,0,0
0:0:58.462,123.047,15.6649,0,0.000885,0,0
0:0:58.858,124.163,15.8097,0,0.000885,0,0
0:0:59.254,125.102,15.9269,0,0.000885,0,0
0:0:59.655,125.631,15.9958,0,0.000885,0,0
0:1:0.055,127.095,16.182,0,0.000885,0,0
0:1:0.453,128.327,16.3406,0,0.000885,0,0
0:1:0.850,129.968,16.5474,0,0.000885,0,0
0:1:1.255,130.791,16.6508,0,0.000885,0,0
0:1:1.661,131.73,16.7749,0,0.000885,0,0
0:1:2.062,133.02,16.9335,0,0.000885,0,0
0:1:2.465,134.194,17.0852,0,0.000885,0,0
0:1:2.862,134.955,17.1817,0,0.000885,0,0
0:1:3.260,135.835,17.2921,0,0.000885,0,0
0:1:3.661,136.832,17.4231,0,0.000885,0,0
0:1:4.059,138.415,17.623,0,0.000885,0,0
0:1:4.455,139.59,17.7747,0,0.000885,0,0
0:1:4.852,140.702,17.9126,0,0.000885,0,0
0:1:5.253,141.818,18.0574,0,0.000885,0,0
0:1:5.651,142.872,18.1884,0,0.000885,0,0
0:1:6.057,143.869,18.3194,0,0.000885,0,0
0:1:6.463,145.452,18.5193,0,0.000885,0,0
0:1:6.867,145.982,18.5883,0,0.000885,0,0
0:1:7.270,147.33,18.7606,0,0.000885,0,0
0:1:7.674,148.268,18.8778,0,0.000885,0,0
0:1:8.070,149.385,19.0226,0,0.000885,0,0
0:1:8.467,150.555,19.1674,0,0.000885,0,0
0:1:8.868,151.907,19.3398,0,0.000885,0,0
0:1:9.266,152.432,19.4087,0,0.000885,0,0
0:1:9.663,153.664,19.5673,0,0.000885,0,0
0:1:10.059,154.429,19.6638,0,0.000885,0,0
0:1:10.459,155.835,19.8431,0,0.000885,0,0
0:1:10.859,156.657,19.9465,0,0.000885,0,0
0:1:11.266,158.121,20.1327,0,0.000885,0,0
0:1:11.670,159.469,20.3051,0,0.000885,0,0
0:1:12.072,159.998,20.374,0,0.000885,0,0
0:1:12.474,161.052,20.505,0,0.000885,0,0
0:1:12.873,162.52,20.6912,0,0.000885,0,0
0:1:13.270,163.459,20.8153,0,0.000885,0,0
0:1:13.666,164.807,20.9807,0,0.000885,0,0
0:1:14.066,166.039,21.1393,0,0.000885,0,0
0:1:14.466,167.213,21.291,0,0.000885,0,0
0:1:14.863,168.267,21.422,0,0.000885,0,0
0:1:15.259,169.09,21.5323,0,0.000885,0,0
0:1:15.659,170.26,21.6771,0,0.000885,0,0
0:1:16.061,171.786,21.8702,0,0.000885,0,0
0:1:16.466,172.782,22.0012,0,0.000885,0,0
0:1:16.871,173.783,22.1253,0,0.000885,0,0
0:1:17.273,174.895,22.2701,0,0.000885,0,0
0:1:17.672,176.012,22.408,0,0.000885,0,0
0:1:18.073,176.772,22.5045,0,0.000885,0,0
0:1:18.470,177.947,22.6562,0,0.000885,0,0
0:1:18.866,178.765,22.7596,0,0.000885,0,0
0:1:19.265,179.588,22.863,0,0.000885,0,0
0:1:19.665,180.469,22.9802,0,0.000885,0,0
0:1:20.066,181.701,23.1319,0,0.000885,0,0
0:1:20.462,182.991,23.2974,0,0.000885,0,0
0:1:20.858,184.103,23.4422,0,0.000885,0,0
0:1:21.263,184.868,23.5387,0,0.000885,0,0
0:1:21.669,186.332,23.7249,0,0.000885,0,0
0:1:22.073,187.212,23.8352,0,0.000885,0,0
0:1:22.477,188.56,24.0075,0,0.000885,0,0
0:1:22.873,189.441,24.1179,0,0.000885,0,0
0:1:23.275,190.437,24.2489,0,0.000885,0,0
0:1:23.673,191.434,24.373,0,0.000885,0,0
0:1:24.069,192.666,24.5315,0,0.000885,0,0
0:1:24.463,193.547,24.6419,0,0.000885,0,0
0:1:24.859,194.894,24.8142,0,0.000885,0,0
0:1:25.256,195.659,24.9108,0,0.000885,0,0
0:1:25.649,196.184,24.9797,0,0.000885,0,0
0:1:26.039,197.417,25.1383,0,0.000885,0,0
0:1:26.442,198.764,25.3107,0,0.000885,0,0
0:1:26.844,199.587,25.4141,0,0.000885,0,0
0:1:27.245,200.819,25.5658,0,0.000885,0,0
0:1:27.646,201.58,25.6692,0,0.000885,0,0
0:1:28.050,202.932,25.8347,0,0.000885,0,0
0:1:28.449,204.28,26.007,0,0.000885,0,0
0:1:28.855,205.392,26.1518,0,0.000885,0,0
0:1:29.257,206.624,26.3104,0,0.000885,0,0
0:1:29.651,207.741,26.4483,0,0.000885,0,0
0:1:30.045,208.622,26.5655,0,0.000885,0,0
0:1:30.443,209.089,26.6207,0,0.000885,0,0
0:1:30.837,209.969,26.731,0,0.000885,0,0
0:1:31.238,209.912,26.7241,0,0.000885,0,0
0:1:31.639,208.737,26.5793,0,0.000885,0,0
0:1:32.038,208.501,26.5448,0,0.000885,0,0
0:1:32.436,209.912,26.7241,0,0.000885,0,0
0:1:32.831,211.726,26.9585,0,0.000885,0,0
0:1:33.243,212.02,26.993,0,0.000885,0,0
0:1:33.639,212.665,27.0757,0,0.000885,0,0
0:1:34.035,212.492,27.055,0,0.000885,0,0
0:1:34.438,211.847,26.9723,0,0.000885,0,0
0:1:34.840,210.557,26.8068,0,0.000885,0,0
0:1:35.242,208.501,26.5448,0,0.000885,0,0
0:1:35.638,206.037,26.2346,0,0.000885,0,0
0:1:36.034,200.29,25.5037,0,0.000885,0,0
0:1:36.437,190.731,24.2833,0,0.000885,0,0
0:1:36.840,173.957,22.146,0,0.000885,0,0
0:1:37.243,163.868,20.8635,0,0.000885,0,0
0:1:37.643,158.65,20.2016,0,0.000885,0,0
0:1:38.040,153.428,19.5328,0,0.000885,0,0
0:1:38.345,149.442,19.0295,0,0.000885,0,0