File: DataFile2021-06-09_055828.csv
Test ID:,Date Tested:,Time:,Test Type:,Diameter Avg. (mm):,Cyl. Corr. Factor:,Height (mm):,Age (days):,Weight (kN):,Break Type:,Ramp Rate (MPa/s):,Load at Break (kN):,Stress at Break (MPa):
12,6/9/2021,05:58,Cylinder,100,1,200,0,3.6,3,0.24,337.42,42.96
Sample Time,Load (kN),Stress (MPa),Long. Strain,Trans. Strain,Chan1 Deflection (mm),Chan2 Deflection (mm)
0:0:19.290,5.04428,0.641212,0,0.000885,0,0
0:0:20.078,11.1428,1.42032,0,0.000885,0,0
0:0:20.886,10.6757,1.35827,0,0.000885,0,0
0:0:21.687,10.44,1.33069,0,0.000885,0,0
0:0:22.491,10.4978,1.33758,0,0.000885,0,0
0:0:23.292,11.8456,1.50995,0,0.000885,0,0
0:0:24.087,14.3099,1.82022,0,0.000885,0,0
0:0:24.902,16.0714,2.04774,0,0.000885,0,0
0:0:25.709,17.3036,2.20632,0,0.000885,0,0
0:0:26.509,19.0028,2.42006,0,0.000885,0,0
0:0:27.301,20.4084,2.59932,0,0.000885,0,0
0:0:28.099,22.2856,2.84064,0,0.000885,0,0
0:0:28.893,24.2206,3.08196,0,0.000885,0,0
0:0:29.693,25.8664,3.29569,0,0.000885,0,0
0:0:30.504,27.5078,3.50254,0,0.000885,0,0
0:0:31.306,28.8556,3.67491,0,0.000885,0,0
0:0:32.102,30.0878,3.83349,0,0.000885,0,0
0:0:32.896,31.6135,4.02654,0,0.000885,0,0
0:0:33.694,32.9035,4.19201,0,0.000885,0,0
0:0:34.487,35.3678,4.50228,0,0.000885,0,0
0:0:35.297,36.4799,4.64707,0,0.000885,0,0
0:0:36.101,37.7698,4.81254,0,0.000885,0,0
0:0:36.899,39.5313,5.03317,0,0.000885,0,0
0:0:37.694,41.2884,5.25381,0,0.000885,0,0
0:0:38.491,42.8141,5.45375,0,0.000885,0,0
0:0:39.295,44.8069,5.70196,0,0.000885,0,0
0:0:40.097,46.1014,5.86744,0,0.000885,0,0
0:0:40.906,46.6263,5.93639,0,0.000885,0,0
0:0:41.707,49.7934,6.34318,0,0.000885,0,0
0:0:42.504,50.9677,6.48797,0,0.000885,0,0
0:0:43.296,52.3155,6.66034,0,0.000885,0,0
0:0:44.095,53.7834,6.84649,0,0.000885,0,0
0:0:44.897,55.0734,7.01197,0,0.000885,0,0
0:0:45.705,56.5369,7.19813,0,0.000885,0,0
0:0:46.506,58.7076,7.47392,0,0.000885,0,0
0:0:47.301,60.2912,7.67386,0,0.000885,0,0
0:0:48.099,61.7591,7.86002,0,0.000885,0,0
0:0:48.891,63.2848,8.05997,0,0.000885,0,0
0:0:49.692,64.7483,8.24613,0,0.000885,0,0
0:0:50.501,66.7456,8.50124,0,0.000885,0,0
0:0:51.307,67.8576,8.63913,0,0.000885,0,0
0:0:52.101,69.499,8.84597,0,0.000885,0,0
0:0:52.897,70.9669,9.03903,0,0.000885,0,0
0:0:53.694,72.8441,9.27345,0,0.000885,0,0
0:0:54.489,74.1341,9.43892,0,0.000885,0,0
0:0:55.296,75.8956,9.66645,0,0.000885,0,0
0:0:56.102,77.0654,9.81124,0,0.000885,0,0
0:0:56.901,78.7068,10.025,0,0.000885,0,0
0:0:57.694,80.5262,10.2525,0,0.000885,0,0
0:0:58.491,82.0519,10.4456,0,0.000885,0,0
0:0:59.281,83.8712,10.68,0,0.000885,0,0
0:1:0.093,85.3347,10.8661,0,0.000885,0,0
0:1:0.900,87.2741,11.1143,0,0.000885,0,0
0:1:1.696,88.2082,11.2316,0,0.000885,0,0
0:1:2.494,90.2633,11.4936,0,0.000885,0,0
0:1:3.284,91.3754,11.6315,0,0.000885,0,0
0:1:4.083,92.6698,11.7969,0,0.000885,0,0
0:1:4.884,94.5425,12.0382,0,0.000885,0,0
0:1:5.694,96.0682,12.2313,0,0.000885,0,0
0:1:6.494,97.8297,12.4588,0,0.000885,0,0
0:1:7.292,99.4133,12.6588,0,0.000885,0,0
0:1:8.084,100.819,12.838,0,0.000885,0,0
0:1:8.879,102.816,13.0931,0,0.000885,0,0
0:1:9.699,103.986,13.2379,0,0.000885,0,0
0:1:10.508,105.69,13.4586,0,0.000885,0,0
0:1:11.315,107.331,13.6654,0,0.000885,0,0
0:1:12.106,108.505,13.8171,0,0.000885,0,0
0:1:12.904,109.853,13.9895,0,0.000885,0,0
0:1:13.698,111.846,14.2377,0,0.000885,0,0
0:1:14.495,113.901,14.4997,0,0.000885,0,0
0:1:15.299,115.013,14.6445,0,0.000885,0,0
0:1:16.105,116.775,14.8651,0,0.000885,0,0
0:1:16.906,118.065,15.0306,0,0.000885,0,0
0:1:17.699,119.47,15.2098,0,0.000885,0,0
0:1:18.498,121.819,15.5132,0,0.000885,0,0
0:1:19.287,123.047,15.6649,0,0.000885,0,0
0:1:20.099,124.866,15.8993,0,0.000885,0,0
0:1:20.905,125.747,16.0096,0,0.000885,0,0
0:1:21.702,127.33,16.2096,0,0.000885,0,0
0:1:22.499,129.15,16.444,0,0.000885,0,0
0:1:23.294,131.085,16.6922,0,0.000885,0,0
0:1:24.091,132.197,16.8301,0,0.000885,0,0
0:1:24.901,134.132,17.0783,0,0.000885,0,0
0:1:25.710,135.07,17.1955,0,0.000885,0,0
0:1:26.510,136.89,17.4299,0,0.000885,0,0
0:1:27.310,138.593,17.6437,0,0.000885,0,0
0:1:28.102,140.408,17.8781,0,0.000885,0,0
0:1:28.900,142.05,18.0849,0,0.000885,0,0
0:1:29.696,143.575,18.278,0,0.000885,0,0
0:1:30.505,144.807,18.4366,0,0.000885,0,0
0:1:31.309,146.217,18.6158,0,0.000885,0,0
0:1:32.105,148.152,18.8641,0,0.000885,0,0
0:1:32.905,149.967,19.0916,0,0.000885,0,0
0:1:33.698,151.084,19.2364,0,0.000885,0,0
0:1:34.497,152.374,19.4018,0,0.000885,0,0
0:1:35.306,154.66,19.6914,0,0.000885,0,0
0:1:36.110,155.892,19.85,0,0.000885,0,0
0:1:36.905,157.418,20.0431,0,0.000885,0,0
0:1:37.699,159.002,20.243,0,0.000885,0,0
0:1:38.495,160.527,20.4361,0,0.000885,0,0
0:1:39.299,162.053,20.636,0,0.000885,0,0
0:1:40.107,163.459,20.8153,0,0.000885,0,0
0:1:40.912,165.278,21.0428,0,0.000885,0,0
0:1:41.712,166.51,21.2014,0,0.000885,0,0
0:1:42.506,168.912,21.5047,0,0.000885,0,0
0:1:43.303,169.735,21.6082,0,0.000885,0,0
0:1:44.098,171.199,21.8012,0,0.000885,0,0
0:1:44.898,173.663,22.1115,0,0.000885,0,0
0:1:45.706,174.837,22.2632,0,0.000885,0,0
0:1:46.505,176.012,22.408,0,0.000885,0,0
0:1:47.304,177.947,22.6562,0,0.000885,0,0
0:1:48.096,179.294,22.8285,0,0.000885,0,0
0:1:48.895,180.642,23.0009,0,0.000885,0,0
0:1:49.698,182.519,23.2422,0,0.000885,0,0
0:1:50.508,183.93,23.4215,0,0.000885,0,0
0:1:51.313,186.038,23.6904,0,0.000885,0,0
0:1:52.108,187.034,23.8145,0,0.000885,0,0
0:1:52.907,189.263,24.0972,0,0.000885,0,0
0:1:53.697,189.85,24.173,0,0.000885,0,0
0:1:54.496,191.847,24.4281,0,0.000885,0,0
0:1:55.304,193.547,24.6419,0,0.000885,0,0
0:1:56.104,195.424,24.8832,0,0.000885,0,0
0:1:56.890,197.065,25.09,0,0.000885,0,0
0:1:57.689,198.355,25.2555,0,0.000885,0,0
0:1:58.501,200.059,25.4692,0,0.000885,0,0
0:1:59.300,201.58,25.6692,0,0.000885,0,0
0:2:0.101,203.457,25.9036,0,0.000885,0,0
0:2:0.901,204.516,26.0415,0,0.000885,0,0
0:2:1.695,205.979,26.2277,0,0.000885,0,0
0:2:2.494,207.799,26.4552,0,0.000885,0,0
0:2:3.295,209.618,26.6896,0,0.000885,0,0
0:2:4.095,211.317,26.9033,0,0.000885,0,0
0:2:4.887,212.492,27.055,0,0.000885,0,0
0:2:5.694,213.546,27.1929,0,0.000885,0,0
0:2:6.497,215.539,27.4411,0,0.000885,0,0
0:2:7.287,217.416,27.6825,0,0.000885,0,0
0:2:8.085,218.648,27.841,0,0.000885,0,0
0:2:8.885,220,28.0134,0,0.000885,0,0
0:2:9.675,221.521,28.2065,0,0.000885,0,0
0:2:10.479,223.047,28.3995,0,0.000885,0,0
0:2:11.289,225.04,28.6546,0,0.000885,0,0
0:2:12.098,226.744,28.8683,0,0.000885,0,0
0:2:12.889,228.327,29.0683,0,0.000885,0,0
0:2:13.701,229.791,29.2613,0,0.000885,0,0
0:2:14.499,230.965,29.4061,0,0.000885,0,0
0:2:15.299,232.958,29.6612,0,0.000885,0,0
0:2:16.098,234.661,29.875,0,0.000885,0,0
0:2:16.889,235.186,29.9439,0,0.000885,0,0
0:2:17.687,237.419,30.2266,0,0.000885,0,0
0:2:18.499,238.941,30.4197,0,0.000885,0,0
0:2:19.298,240.409,30.6127,0,0.000885,0,0
0:2:20.091,242.521,30.8816,0,0.000885,0,0
0:2:20.897,243.985,31.0678,0,0.000885,0,0
0:2:21.688,245.337,31.2401,0,0.000885,0,0
0:2:22.482,246.859,31.4332,0,0.000885,0,0
0:2:23.286,248.62,31.6538,0,0.000885,0,0
0:2:24.090,249.968,31.8262,0,0.000885,0,0
0:2:24.900,252.081,32.0951,0,0.000885,0,0
0:2:25.700,253.9,32.3295,0,0.000885,0,0
0:2:26.492,254.834,32.4467,0,0.000885,0,0
0:2:27.290,255.951,32.5915,0,0.000885,0,0
0:2:28.092,257.828,32.8259,0,0.000885,0,0
0:2:28.889,259.296,33.0121,0,0.000885,0,0
0:2:29.704,260.879,33.2189,0,0.000885,0,0
0:2:30.508,263.108,33.5016,0,0.000885,0,0
0:2:31.308,264.456,33.674,0,0.000885,0,0
0:2:32.094,265.452,33.7981,0,0.000885,0,0
0:2:32.885,267.329,34.0394,0,0.000885,0,0
0:2:33.697,269.322,34.2945,0,0.000885,0,0
0:2:34.484,270.612,34.4531,0,0.000885,0,0
0:2:35.283,271.964,34.6255,0,0.000885,0,0
0:2:36.084,273.134,34.7772,0,0.000885,0,0
0:2:36.889,275.011,35.0185,0,0.000885,0,0
0:2:37.684,276.773,35.2391,0,0.000885,0,0
0:2:38.487,278.178,35.4184,0,0.000885,0,0
0:2:39.294,280.056,35.6597,0,0.000885,0,0
0:2:40.099,281.23,35.8045,0,0.000885,0,0
0:2:40.901,283.632,36.1147,0,0.000885,0,0
0:2:41.699,284.806,36.2595,0,0.000885,0,0
0:2:42.500,286.154,36.4319,0,0.000885,0,0
0:2:43.294,287.8,36.6456,0,0.000885,0,0
0:2:44.100,289.09,36.8111,0,0.000885,0,0
0:2:44.893,290.496,36.9904,0,0.000885,0,0
0:2:45.694,292.666,37.2662,0,0.000885,0,0
0:2:46.501,293.956,37.4247,0,0.000885,0,0
0:2:47.292,295.949,37.6798,0,0.000885,0,0
0:2:48.102,296.772,37.7833,0,0.000885,0,0
0:2:48.889,298.943,38.0591,0,0.000885,0,0
0:2:49.690,300.055,38.2039,0,0.000885,0,0
0:2:50.495,301.758,38.4176,0,0.000885,0,0
0:2:51.294,303.342,38.6244,0,0.000885,0,0
0:2:52.090,305.277,38.8657,0,0.000885,0,0
0:2:52.893,307.154,39.1071,0,0.000885,0,0
0:2:53.701,308.853,39.3277,0,0.000885,0,0
0:2:54.501,309.676,39.4311,0,0.000885,0,0
0:2:55.301,311.26,39.6311,0,0.000885,0,0
0:2:56.102,313.017,39.8517,0,0.000885,0,0
0:2:56.905,314.6,40.0585,0,0.000885,0,0
0:2:57.691,315.597,40.1826,0,0.000885,0,0
0:2:58.482,317.416,40.4171,0,0.000885,0,0
0:2:59.289,319.115,40.6308,0,0.000885,0,0
0:3:0.094,320.761,40.8376,0,0.000885,0,0
0:3:0.895,322.518,41.0652,0,0.000885,0,0
0:3:1.695,323.808,41.2306,0,0.000885,0,0
0:3:2.486,325.628,41.4582,0,0.000885,0,0
0:3:3.286,327.153,41.6512,0,0.000885,0,0
0:3:4.097,328.15,41.7822,0,0.000885,0,0
0:3:4.893,330.2,42.0442,0,0.000885,0,0
0:3:5.695,331.433,42.2028,0,0.000885,0,0
0:3:6.498,332.665,42.3545,0,0.000885,0,0
0:3:7.304,334.133,42.5407,0,0.000885,0,0
0:3:8.101,335.774,42.7544,0,0.000885,0,0
0:3:8.903,336.655,42.8647,0,0.000885,0,0
0:3:9.701,337.415,42.9612,0,0.000885,0,0
0:3:10.504,337.006,42.9061,0,0.000885,0,0
0:3:11.304,335.187,42.6785,0,0.000885,0,0
0:3:12.107,325.685,41.4651,0,0.000885,0,0
0:3:12.897,305.571,38.9071,0,0.000885,0,0
0:3:13.691,267.093,34.0049,0,0.000885,0,0
0:3:14.373,240.057,30.5645,0,0.000885,0,0