File: DataFile2021-06-09_054242.csv
Test ID:,Date Tested:,Time:,Test Type:,Diameter Avg. (mm):,Cyl. Corr. Factor:,Height (mm):,Age (days):,Weight (kN):,Break Type:,Ramp Rate (MPa/s):,Load at Break (kN):,Stress at Break (MPa):
12,6/9/2021,05:42,Cylinder,100,1,200,0,3.6,3,0.24,281.35,35.83
Sample Time,Load (kN),Stress (MPa),Long. Strain,Trans. Strain,Chan1 Deflection (mm),Chan2 Deflection (mm)
0:0:19.110,6.62785,0.84116,0,0.000885,0,0
0:0:19.809,15.7778,2.00637,0,0.000885,0,0
0:0:20.499,14.8393,1.88916,0,0.000885,0,0
0:0:21.193,14.4879,1.84779,0,0.000885,0,0
0:0:21.889,14.1943,1.80643,0,0.000885,0,0
0:0:22.579,14.5457,1.85469,0,0.000885,0,0
0:0:23.284,14.2521,1.81332,0,0.000885,0,0
0:0:23.980,14.5457,1.85469,0,0.000885,0,0
0:0:24.678,14.7814,1.88227,0,0.000885,0,0
0:0:25.383,16.1871,2.06153,0,0.000885,0,0
0:0:26.087,18.1799,2.31664,0,0.000885,0,0
0:0:26.783,20.2928,2.58553,0,0.000885,0,0
0:0:27.481,22.1699,2.81996,0,0.000885,0,0
0:0:28.173,23.6378,3.00611,0,0.000885,0,0
0:0:28.868,24.5141,3.12333,0,0.000885,0,0
0:0:29.568,26.0399,3.31638,0,0.000885,0,0
0:0:30.280,27.272,3.47496,0,0.000885,0,0
0:0:30.985,27.8014,3.53701,0,0.000885,0,0
0:0:31.683,29.5584,3.76454,0,0.000885,0,0
0:0:32.383,30.8484,3.93001,0,0.000885,0,0
0:0:33.083,32.6677,4.15754,0,0.000885,0,0
0:0:33.780,34.367,4.37817,0,0.000885,0,0
0:0:34.480,36.0706,4.59191,0,0.000885,0,0
0:0:35.188,36.8313,4.68843,0,0.000885,0,0
0:0:35.894,37.5341,4.77807,0,0.000885,0,0
0:0:36.594,38.8864,4.95044,0,0.000885,0,0
0:0:37.294,40.8213,5.19865,0,0.000885,0,0
0:0:37.988,42.6985,5.43307,0,0.000885,0,0
0:0:38.685,44.3399,5.64681,0,0.000885,0,0
0:0:39.384,45.4519,5.7847,0,0.000885,0,0
0:0:40.093,46.3327,5.90191,0,0.000885,0,0
0:0:40.799,47.1556,6.00533,0,0.000885,0,0
0:0:41.494,48.2677,6.14323,0,0.000885,0,0
0:0:42.189,50.5585,6.4397,0,0.000885,0,0
0:0:42.888,52.4356,6.67413,0,0.000885,0,0
0:0:43.583,53.7256,6.8396,0,0.000885,0,0
0:0:44.275,54.2505,6.90855,0,0.000885,0,0
0:0:44.988,56.0698,7.13607,0,0.000885,0,0
0:0:45.694,57.4755,7.31534,0,0.000885,0,0
0:0:46.392,58.7699,7.48081,0,0.000885,0,0
0:0:47.091,60.2334,7.66697,0,0.000885,0,0
0:0:47.784,61.5234,7.83244,0,0.000885,0,0
0:0:48.482,62.9334,8.01171,0,0.000885,0,0
0:0:49.180,64.3969,8.19787,0,0.000885,0,0
0:0:49.880,65.2198,8.30129,0,0.000885,0,0
0:0:50.588,66.6255,8.48055,0,0.000885,0,0
0:0:51.292,68.9163,8.77703,0,0.000885,0,0
0:0:51.986,69.7926,8.88734,0,0.000885,0,0
0:0:52.684,71.1449,9.05971,0,0.000885,0,0
0:0:53.380,72.0212,9.17003,0,0.000885,0,0
0:0:54.084,74.0184,9.42513,0,0.000885,0,0
0:0:54.794,75.2506,9.58371,0,0.000885,0,0
0:0:55.499,76.3626,9.72161,0,0.000885,0,0
0:0:56.199,77.9462,9.92156,0,0.000885,0,0
0:0:56.895,79.2362,10.087,0,0.000885,0,0
0:0:57.590,81.2912,10.349,0,0.000885,0,0
0:0:58.288,82.1675,10.4593,0,0.000885,0,0
0:0:58.982,83.4575,10.6248,0,0.000885,0,0
0:0:59.687,84.9254,10.811,0,0.000885,0,0
0:1:0.395,86.509,11.0178,0,0.000885,0,0
0:1:1.094,87.799,11.1764,0,0.000885,0,0
0:1:1.791,88.9155,11.3212,0,0.000885,0,0
0:1:2.490,90.5569,11.528,0,0.000885,0,0
0:1:3.183,91.5533,11.659,0,0.000885,0,0
0:1:3.889,93.3148,11.8797,0,0.000885,0,0
0:1:4.586,94.5425,12.0382,0,0.000885,0,0
0:1:5.296,95.6012,12.1692,0,0.000885,0,0
0:1:6.001,97.4783,12.4106,0,0.000885,0,0
0:1:6.698,98.5904,12.5554,0,0.000885,0,0
0:1:7.393,100.352,12.776,0,0.000885,0,0
0:1:8.090,100.997,12.8587,0,0.000885,0,0
0:1:8.786,102.46,13.0449,0,0.000885,0,0
0:1:9.477,103.755,13.2104,0,0.000885,0,0
0:1:10.189,105.805,13.4724,0,0.000885,0,0
0:1:10.893,106.686,13.5827,0,0.000885,0,0
0:1:11.594,108.092,13.7619,0,0.000885,0,0
0:1:12.293,110.027,14.0101,0,0.000885,0,0
0:1:12.984,110.908,14.1205,0,0.000885,0,0
0:1:13.683,112.433,14.3135,0,0.000885,0,0
0:1:14.382,114.368,14.5617,0,0.000885,0,0
0:1:15.091,115.422,14.6996,0,0.000885,0,0
0:1:15.796,116.303,14.8099,0,0.000885,0,0
0:1:16.491,117.242,14.9271,0,0.000885,0,0
0:1:17.186,119.177,15.1754,0,0.000885,0,0
0:1:17.885,120.525,15.3477,0,0.000885,0,0
0:1:18.577,122.344,15.5753,0,0.000885,0,0
0:1:19.285,123.692,15.7476,0,0.000885,0,0
0:1:19.993,124.866,15.8993,0,0.000885,0,0
0:1:20.696,125.511,15.982,0,0.000885,0,0
0:1:21.397,127.33,16.2096,0,0.000885,0,0
0:1:22.094,129.265,16.4578,0,0.000885,0,0
0:1:22.787,130.146,16.5681,0,0.000885,0,0
0:1:23.486,132.023,16.8094,0,0.000885,0,0
0:1:24.179,133.135,16.9542,0,0.000885,0,0
0:1:24.894,134.31,17.099,0,0.000885,0,0
0:1:25.601,136.245,17.3472,0,0.000885,0,0
0:1:26.301,137.241,17.4713,0,0.000885,0,0
0:1:26.999,138.3,17.6092,0,0.000885,0,0
0:1:27.697,139.59,17.7747,0,0.000885,0,0
0:1:28.389,141.525,18.016,0,0.000885,0,0
0:1:29.088,143.05,18.2159,0,0.000885,0,0
0:1:29.786,143.989,18.3332,0,0.000885,0,0
0:1:30.497,145.688,18.5469,0,0.000885,0,0
0:1:31.201,146.391,18.6365,0,0.000885,0,0
0:1:31.893,148.032,18.8503,0,0.000885,0,0
0:1:32.589,149.616,19.0502,0,0.000885,0,0
0:1:33.288,150.732,19.195,0,0.000885,0,0
0:1:33.984,152.432,19.4087,0,0.000885,0,0
0:1:34.698,153.779,19.5811,0,0.000885,0,0
0:1:35.404,155.132,19.7535,0,0.000885,0,0
0:1:36.102,156.186,19.8845,0,0.000885,0,0
0:1:36.801,157.885,20.1051,0,0.000885,0,0
0:1:37.497,159.002,20.243,0,0.000885,0,0
0:1:38.190,160.292,20.4085,0,0.000885,0,0
0:1:38.889,161.991,20.6222,0,0.000885,0,0
0:1:39.587,163.165,20.7739,0,0.000885,0,0
0:1:40.296,164.691,20.967,0,0.000885,0,0
0:1:40.999,165.745,21.1049,0,0.000885,0,0
0:1:41.696,168.032,21.3944,0,0.000885,0,0
0:1:42.391,168.677,21.4772,0,0.000885,0,0
0:1:43.089,169.909,21.6357,0,0.000885,0,0
0:1:43.792,171.612,21.8495,0,0.000885,0,0
0:1:44.489,172.782,22.0012,0,0.000885,0,0
0:1:45.200,173.899,22.1391,0,0.000885,0,0
0:1:45.905,175.131,22.2976,0,0.000885,0,0
0:1:46.605,176.83,22.5183,0,0.000885,0,0
0:1:47.300,178.414,22.7182,0,0.000885,0,0
0:1:47.995,180.055,22.9251,0,0.000885,0,0
0:1:48.692,181.114,23.063,0,0.000885,0,0
0:1:49.386,182.697,23.2629,0,0.000885,0,0
0:1:50.096,183.516,23.3663,0,0.000885,0,0
0:1:50.799,185.513,23.6214,0,0.000885,0,0
0:1:51.497,186.625,23.7593,0,0.000885,0,0
0:1:52.195,187.915,23.9248,0,0.000885,0,0
0:1:52.889,188.912,24.0558,0,0.000885,0,0
0:1:53.588,190.731,24.2833,0,0.000885,0,0
0:1:54.281,192.372,24.4971,0,0.000885,0,0
0:1:54.982,193.604,24.6488,0,0.000885,0,0
0:1:55.687,195.308,24.8694,0,0.000885,0,0
0:1:56.381,196.478,25.0142,0,0.000885,0,0
0:1:57.080,197.888,25.1934,0,0.000885,0,0
0:1:57.786,198.591,25.2831,0,0.000885,0,0
0:1:58.493,200.059,25.4692,0,0.000885,0,0
0:1:59.183,201.874,25.7037,0,0.000885,0,0
0:1:59.889,203.342,25.8898,0,0.000885,0,0
0:2:0.589,204.222,26.0001,0,0.000885,0,0
0:2:1.282,205.334,26.1449,0,0.000885,0,0
0:2:1.982,207.389,26.4069,0,0.000885,0,0
0:2:2.692,208.679,26.5724,0,0.000885,0,0
0:2:3.387,209.969,26.731,0,0.000885,0,0
0:2:4.073,211.144,26.8827,0,0.000885,0,0
0:2:4.776,212.434,27.0481,0,0.000885,0,0
0:2:5.478,214.133,27.2619,0,0.000885,0,0
0:2:6.172,215.601,27.448,0,0.000885,0,0
0:2:6.875,216.539,27.5721,0,0.000885,0,0
0:2:7.597,218.474,27.8135,0,0.000885,0,0
0:2:8.289,219.471,27.9445,0,0.000885,0,0
0:2:8.992,220.703,28.103,0,0.000885,0,0
0:2:9.687,222.229,28.2961,0,0.000885,0,0
0:2:10.390,223.399,28.4409,0,0.000885,0,0
0:2:11.087,225.218,28.6753,0,0.000885,0,0
0:2:11.787,226.686,28.8615,0,0.000885,0,0
0:2:12.479,227.976,29.0269,0,0.000885,0,0
0:2:13.189,229.03,29.1579,0,0.000885,0,0
0:2:13.889,230.849,29.3924,0,0.000885,0,0
0:2:14.591,231.668,29.4958,0,0.000885,0,0
0:2:15.297,233.078,29.675,0,0.000885,0,0
0:2:15.997,234.777,29.8957,0,0.000885,0,0
0:2:16.691,235.951,30.0405,0,0.000885,0,0
0:2:17.389,237.241,30.2059,0,0.000885,0,0
0:2:18.081,238.883,30.4128,0,0.000885,0,0
0:2:18.772,240.524,30.6265,0,0.000885,0,0
0:2:19.471,241.699,30.7713,0,0.000885,0,0
0:2:20.173,242.815,30.9161,0,0.000885,0,0
0:2:20.879,244.336,31.1091,0,0.000885,0,0
0:2:21.579,245.511,31.2608,0,0.000885,0,0
0:2:22.274,247.152,31.4677,0,0.000885,0,0
0:2:22.993,248.384,31.6263,0,0.000885,0,0
0:2:23.683,249.91,31.8193,0,0.000885,0,0
0:2:24.386,251.142,31.9779,0,0.000885,0,0
0:2:25.093,252.139,32.102,0,0.000885,0,0
0:2:25.793,254.016,32.3433,0,0.000885,0,0
0:2:26.496,255.364,32.5157,0,0.000885,0,0
0:2:27.181,256.831,32.7018,0,0.000885,0,0
0:2:27.885,258.121,32.8673,0,0.000885,0,0
0:2:28.586,259.354,33.019,0,0.000885,0,0
0:2:29.295,260.644,33.1845,0,0.000885,0,0
0:2:30.000,261.756,33.3293,0,0.000885,0,0
0:2:30.700,263.517,33.5499,0,0.000885,0,0
0:2:31.394,264.865,33.7223,0,0.000885,0,0
0:2:32.098,266.097,33.8808,0,0.000885,0,0
0:2:32.796,267.623,34.0739,0,0.000885,0,0
0:2:33.485,268.504,34.1842,0,0.000885,0,0
0:2:34.191,270.67,34.46,0,0.000885,0,0
0:2:34.897,271.844,34.6117,0,0.000885,0,0
0:2:35.600,272.841,34.7427,0,0.000885,0,0
0:2:36.299,274.015,34.8875,0,0.000885,0,0
0:2:36.985,274.544,34.9564,0,0.000885,0,0
0:2:37.698,274.424,34.9426,0,0.000885,0,0
0:2:38.385,267.859,34.1015,0,0.000885,0,0
0:2:39.081,267.271,34.0325,0,0.000885,0,0
0:2:39.785,272.725,34.722,0,0.000885,0,0
0:2:40.485,278.65,35.4804,0,0.000885,0,0
0:2:41.180,280.994,35.7769,0,0.000885,0,0
0:2:41.893,281.052,35.7838,0,0.000885,0,0
0:2:42.599,279.001,35.5218,0,0.000885,0,0
0:2:43.288,270.381,34.4255,0,0.000885,0,0
0:2:43.988,254.074,32.3502,0,0.000885,0,0
0:2:44.696,236.712,30.137,0,0.000885,0,0
0:2:45.398,211.962,26.9861,0,0.000885,0,0
0:2:45.664,198.827,25.3175,0,0.000885,0,0