File: DataFile2021-06-07_034136.csv
Test ID:,Date Tested:,Time:,Test Type:,Diameter Avg. (mm):,Cyl. Corr. Factor:,Height (mm):,Age (days):,Weight (kN):,Break Type:,Ramp Rate (MPa/s):,Load at Break (kN):,Stress at Break (MPa):
12,6/7/2021,03:41,Cylinder,100,1,200,0,3.6,3,0.23,691.04,87.98
Sample Time,Load (kN),Stress (MPa),Long. Strain,Trans. Strain,Chan1 Deflection (mm),Chan2 Deflection (mm)
0:0:20.512,5.98286,0.758423,0,0.000885,0,0
0:0:22.012,9.79498,1.24795,0,0.000885,0,0
0:0:23.509,9.5014,1.20658,0,0.000885,0,0
0:0:25.005,12.375,1.5789,0,0.000885,0,0
0:0:26.511,16.6586,2.12359,0,0.000885,0,0
0:0:28.017,19.6478,2.5028,0,0.000885,0,0
0:0:29.518,23.4599,2.98543,0,0.000885,0,0
0:0:31.019,26.9206,3.42669,0,0.000885,0,0
0:0:32.536,29.1492,3.70938,0,0.000885,0,0
0:0:34.027,31.5557,4.01964,0,0.000885,0,0
0:0:35.520,34.9541,4.45401,0,0.000885,0,0
0:0:37.036,37.6542,4.79186,0,0.000885,0,0
0:0:38.528,40.5856,5.16417,0,0.000885,0,0
0:0:40.023,43.6371,5.55717,0,0.000885,0,0
0:0:41.527,46.1014,5.86744,0,0.000885,0,0
0:0:43.031,49.5576,6.3087,0,0.000885,0,0
0:0:44.524,52.4935,6.68102,0,0.000885,0,0
0:0:46.017,55.367,7.04644,0,0.000885,0,0
0:0:47.533,58.5341,7.45323,0,0.000885,0,0
0:0:49.025,61.3499,7.81176,0,0.000885,0,0
0:0:50.519,64.8106,8.25302,0,0.000885,0,0
0:0:52.027,66.8612,8.51503,0,0.000885,0,0
0:0:53.524,70.0862,8.92182,0,0.000885,0,0
0:0:55.016,72.9019,9.28034,0,0.000885,0,0
0:0:56.525,75.8333,9.65266,0,0.000885,0,0
0:0:58.024,78.8848,10.0457,0,0.000885,0,0
0:0:59.520,81.8161,10.418,0,0.000885,0,0
0:1:1.014,84.574,10.7696,0,0.000885,0,0
0:1:2.528,87.7412,11.1695,0,0.000885,0,0
0:1:4.021,90.9083,11.5763,0,0.000885,0,0
0:1:5.520,93.8397,11.9486,0,0.000885,0,0
0:1:7.028,96.4819,12.2865,0,0.000885,0,0
0:1:8.527,99.0619,12.6105,0,0.000885,0,0
0:1:10.020,102.874,13.1,0,0.000885,0,0
0:1:11.526,105.103,13.3827,0,0.000885,0,0
0:1:13.026,108.857,13.8585,0,0.000885,0,0
0:1:14.517,111.201,14.1618,0,0.000885,0,0
0:1:16.025,114.195,14.541,0,0.000885,0,0
0:1:17.536,117.184,14.9203,0,0.000885,0,0
0:1:19.029,120.351,15.3202,0,0.000885,0,0
0:1:20.521,122.931,15.6511,0,0.000885,0,0
0:1:22.030,125.925,16.0303,0,0.000885,0,0
0:1:23.527,128.914,16.4164,0,0.000885,0,0
0:1:25.020,132.317,16.8439,0,0.000885,0,0
0:1:26.523,134.897,17.1748,0,0.000885,0,0
0:1:28.030,137.712,17.5334,0,0.000885,0,0
0:1:29.521,140.292,17.8643,0,0.000885,0,0
0:1:31.023,143.517,18.2711,0,0.000885,0,0
0:1:32.533,147.272,18.7537,0,0.000885,0,0
0:1:34.023,149.794,19.0709,0,0.000885,0,0
0:1:35.518,152.903,19.4708,0,0.000885,0,0
0:1:37.028,155.012,19.7397,0,0.000885,0,0
0:1:38.527,158.53,20.1878,0,0.000885,0,0
0:1:40.018,161.76,20.5946,0,0.000885,0,0
0:1:41.520,164.455,20.9394,0,0.000885,0,0
0:1:43.026,167.622,21.3393,0,0.000885,0,0
0:1:44.512,169.909,21.6357,0,0.000885,0,0
0:1:46.025,172.845,22.0081,0,0.000885,0,0
0:1:47.529,175.718,22.3735,0,0.000885,0,0
0:1:49.022,178.943,22.7803,0,0.000885,0,0
0:1:50.523,181.874,23.1595,0,0.000885,0,0
0:1:52.036,185.042,23.5594,0,0.000885,0,0
0:1:53.531,187.448,23.8696,0,0.000885,0,0
0:1:55.024,191.202,24.3454,0,0.000885,0,0
0:1:56.525,193.956,24.697,0,0.000885,0,0
0:1:58.019,196.772,25.0555,0,0.000885,0,0
0:1:59.499,200.174,25.4899,0,0.000885,0,0
0:2:1.021,202.99,25.8484,0,0.000885,0,0
0:2:2.526,206.037,26.2346,0,0.000885,0,0
0:2:4.013,207.856,26.4621,0,0.000885,0,0
0:2:5.505,211.962,26.9861,0,0.000885,0,0
0:2:7.022,213.488,27.1791,0,0.000885,0,0
0:2:8.511,216.539,27.5721,0,0.000885,0,0
0:2:10.021,219.586,27.9582,0,0.000885,0,0
0:2:11.520,223.456,28.4547,0,0.000885,0,0
0:2:13.026,226.041,28.7787,0,0.000885,0,0
0:2:14.514,228.852,29.1372,0,0.000885,0,0
0:2:16.012,232.375,29.5854,0,0.000885,0,0
0:2:17.509,234.541,29.8612,0,0.000885,0,0
0:2:19.009,237.829,30.2818,0,0.000885,0,0
0:2:20.516,240.351,30.5989,0,0.000885,0,0
0:2:22.021,243.282,30.9781,0,0.000885,0,0
0:2:23.524,246.565,31.3918,0,0.000885,0,0
0:2:25.012,249.265,31.7366,0,0.000885,0,0
0:2:26.529,252.841,32.1916,0,0.000885,0,0
0:2:28.022,255.541,32.5364,0,0.000885,0,0
0:2:29.522,257.943,32.8397,0,0.000885,0,0
0:2:31.021,262.227,33.3844,0,0.000885,0,0
0:2:32.526,263.984,33.6119,0,0.000885,0,0
0:2:34.025,267.503,34.0601,0,0.000885,0,0
0:2:35.512,270.554,34.4462,0,0.000885,0,0
0:2:37.014,273.134,34.7772,0,0.000885,0,0
0:2:38.514,276.301,35.1771,0,0.000885,0,0
0:2:40.006,278.299,35.4322,0,0.000885,0,0
0:2:41.524,281.639,35.8596,0,0.000885,0,0
0:2:43.012,284.513,36.2251,0,0.000885,0,0
0:2:44.504,287.622,36.6181,0,0.000885,0,0
0:2:46.015,291.67,37.1352,0,0.000885,0,0
0:2:47.517,293.196,37.3282,0,0.000885,0,0
0:2:49.017,296.478,37.7488,0,0.000885,0,0
0:2:50.528,300.175,38.2176,0,0.000885,0,0
0:2:52.027,302.755,38.5486,0,0.000885,0,0
0:2:53.521,305.802,38.9347,0,0.000885,0,0
0:2:55.011,308.675,39.3001,0,0.000885,0,0
0:2:56.518,310.966,39.5966,0,0.000885,0,0
0:2:58.027,314.836,40.0861,0,0.000885,0,0
0:2:59.507,316.656,40.3205,0,0.000885,0,0
0:3:1.032,320.935,40.8652,0,0.000885,0,0
0:3:2.535,322.638,41.079,0,0.000885,0,0
0:3:4.013,326.566,41.5823,0,0.000885,0,0
0:3:5.522,329.262,41.9201,0,0.000885,0,0
0:3:7.033,331.904,42.258,0,0.000885,0,0
0:3:8.528,335.013,42.6579,0,0.000885,0,0
0:3:10.029,338.412,43.0853,0,0.000885,0,0
0:3:11.536,341.521,43.4852,0,0.000885,0,0
0:3:13.022,344.573,43.8713,0,0.000885,0,0
0:3:14.531,346.392,44.1058,0,0.000885,0,0
0:3:16.028,350.142,44.5815,0,0.000885,0,0
0:3:17.528,353.602,45.0228,0,0.000885,0,0
0:3:19.015,355.831,45.3055,0,0.000885,0,0
0:3:20.515,358.94,45.6985,0,0.000885,0,0
0:3:22.022,361.227,45.9949,0,0.000885,0,0
0:3:23.510,364.042,46.3535,0,0.000885,0,0
0:3:24.989,367.561,46.8016,0,0.000885,0,0
0:3:26.480,371.2,47.2636,0,0.000885,0,0
0:3:27.974,373.019,47.4911,0,0.000885,0,0
0:3:29.454,376.008,47.8772,0,0.000885,0,0
0:3:30.942,378.94,48.2495,0,0.000885,0,0
0:3:32.444,382.107,48.6494,0,0.000885,0,0
0:3:33.933,384.335,48.9321,0,0.000885,0,0
0:3:35.422,388.383,49.4492,0,0.000885,0,0
0:3:36.932,390.963,49.7801,0,0.000885,0,0
0:3:38.438,393.837,50.1456,0,0.000885,0,0
0:3:39.929,396.83,50.5248,0,0.000885,0,0
0:3:41.426,399.232,50.835,0,0.000885,0,0
0:3:42.932,402.226,51.2143,0,0.000885,0,0
0:3:44.421,405.567,51.6417,0,0.000885,0,0
0:3:45.931,408.796,52.0485,0,0.000885,0,0
0:3:47.431,411.727,52.4208,0,0.000885,0,0
0:3:48.931,414.25,52.7449,0,0.000885,0,0
0:3:50.433,417.417,53.1448,0,0.000885,0,0
0:3:51.932,420.584,53.5516,0,0.000885,0,0
0:3:53.438,422.812,53.8343,0,0.000885,0,0
0:3:54.917,426.74,54.3376,0,0.000885,0,0
0:3:56.418,428.795,54.5927,0,0.000885,0,0
0:3:57.914,432.372,55.0546,0,0.000885,0,0
0:3:59.413,434.778,55.358,0,0.000885,0,0
0:4:0.920,437.589,55.7165,0,0.000885,0,0
0:4:2.425,440.289,56.0613,0,0.000885,0,0
0:4:3.917,444.217,56.5577,0,0.000885,0,0
0:4:5.421,446.739,56.8817,0,0.000885,0,0
0:4:6.936,450.027,57.3023,0,0.000885,0,0
0:4:8.433,452.842,57.6609,0,0.000885,0,0
0:4:9.923,455.947,58.0539,0,0.000885,0,0
0:4:11.438,458.469,58.371,0,0.000885,0,0
0:4:12.932,461.521,58.764,0,0.000885,0,0
0:4:14.429,464.51,59.1432,0,0.000885,0,0
0:4:15.919,467.032,59.4673,0,0.000885,0,0
0:4:17.425,470.493,59.9085,0,0.000885,0,0
0:4:18.926,473.309,60.2671,0,0.000885,0,0
0:4:20.424,476.182,60.6325,0,0.000885,0,0
0:4:21.933,478.998,60.991,0,0.000885,0,0
0:4:23.414,481.871,61.3564,0,0.000885,0,0
0:4:24.896,485.39,61.8046,0,0.000885,0,0
0:4:26.391,488.032,62.1356,0,0.000885,0,0
0:4:27.885,491.079,62.5286,0,0.000885,0,0
0:4:29.367,493.895,62.8871,0,0.000885,0,0
0:4:30.848,497.24,63.3077,0,0.000885,0,0
0:4:32.353,499.411,63.5835,0,0.000885,0,0
0:4:33.837,502.516,63.9833,0,0.000885,0,0
0:4:35.324,504.98,64.2936,0,0.000885,0,0
0:4:36.828,508.676,64.7693,0,0.000885,0,0
0:4:38.340,511.021,65.0658,0,0.000885,0,0
0:4:39.839,514.308,65.4864,0,0.000885,0,0
0:4:41.339,517.706,65.9139,0,0.000885,0,0
0:4:42.832,520.113,66.2241,0,0.000885,0,0
0:4:44.325,523.102,66.6034,0,0.000885,0,0
0:4:45.823,527.034,67.1067,0,0.000885,0,0
0:4:47.331,529.436,67.41,0,0.000885,0,0
0:4:48.831,532.43,67.7893,0,0.000885,0,0
0:4:50.331,535.77,68.2167,0,0.000885,0,0
0:4:51.831,538.586,68.5753,0,0.000885,0,0
0:4:53.316,541.228,68.9131,0,0.000885,0,0
0:4:54.797,544.16,69.2854,0,0.000885,0,0
0:4:56.290,547.211,69.6715,0,0.000885,0,0
0:4:57.786,549.849,70.0094,0,0.000885,0,0
0:4:59.265,552.78,70.3817,0,0.000885,0,0
0:5:0.754,556.357,70.8367,0,0.000885,0,0
0:5:2.249,557.94,71.0367,0,0.000885,0,0
0:5:3.728,561.05,71.4366,0,0.000885,0,0
0:5:5.240,564.395,71.8641,0,0.000885,0,0
0:5:6.742,567.793,72.2915,0,0.000885,0,0
0:5:8.224,570.2,72.6018,0,0.000885,0,0
0:5:9.733,572.78,72.9258,0,0.000885,0,0
0:5:11.234,575.831,73.3188,0,0.000885,0,0
0:5:12.729,579.701,73.8084,0,0.000885,0,0
0:5:14.227,581.814,74.0773,0,0.000885,0,0
0:5:15.726,584.981,74.4841,0,0.000885,0,0
0:5:17.230,587.913,74.8564,0,0.000885,0,0
0:5:18.732,590.555,75.1942,0,0.000885,0,0
0:5:20.240,594.073,75.6424,0,0.000885,0,0
0:5:21.752,596.306,75.9251,0,0.000885,0,0
0:5:23.240,600.181,76.4146,0,0.000885,0,0
0:5:24.725,601.884,76.6352,0,0.000885,0,0
0:5:26.228,604.936,77.0213,0,0.000885,0,0
0:5:27.735,607.222,77.3109,0,0.000885,0,0
0:5:29.224,610.745,77.766,0,0.000885,0,0
0:5:30.713,614.09,78.1865,0,0.000885,0,0
0:5:32.225,617.44,78.614,0,0.000885,0,0
0:5:33.712,619.611,78.8898,0,0.000885,0,0
0:5:35.200,622.546,79.2621,0,0.000885,0,0
0:5:36.716,625.949,79.6965,0,0.000885,0,0
0:5:38.203,628.592,80.0343,0,0.000885,0,0
0:5:39.691,632.115,80.4825,0,0.000885,0,0
0:5:41.196,635.166,80.8686,0,0.000885,0,0
0:5:42.695,638.102,81.2478,0,0.000885,0,0
0:5:44.187,640.508,81.5512,0,0.000885,0,0
0:5:45.677,643.853,81.9787,0,0.000885,0,0
0:5:47.189,647.256,82.413,0,0.000885,0,0
0:5:48.675,649.721,82.7233,0,0.000885,0,0
0:5:50.162,652.421,83.068,0,0.000885,0,0
0:5:51.672,655.183,83.4197,0,0.000885,0,0
0:5:53.159,658.702,83.8678,0,0.000885,0,0
0:5:54.648,660.877,84.1436,0,0.000885,0,0
0:5:56.151,663.515,84.4815,0,0.000885,0,0
0:5:57.649,666.744,84.8951,0,0.000885,0,0
0:5:59.147,669.386,85.2261,0,0.000885,0,0
0:6:0.634,672.909,85.6743,0,0.000885,0,0
0:6:2.149,675.903,86.0604,0,0.000885,0,0
0:6:3.645,679.426,86.5085,0,0.000885,0,0
0:6:5.129,681.303,86.7429,0,0.000885,0,0
0:6:6.636,684.119,87.1015,0,0.000885,0,0
0:6:8.129,687.935,87.591,0,0.000885,0,0
0:6:9.637,690.813,87.9564,0,0.000885,0,0
0:6:11.139,668.154,85.0744,0,0.000885,0,0
0:6:12.653,668.154,85.0744,0,0.000885,0,0
0:6:14.145,560.405,71.3538,0,0.000885,0,0
0:6:15.385,500.932,63.7834,0,0.000885,0,0