File: DataFile2021-06-08_050503.csv
Test ID:,Date Tested:,Time:,Test Type:,Diameter Avg. (mm):,Cyl. Corr. Factor:,Height (mm):,Age (days):,Weight (kN):,Break Type:,Ramp Rate (MPa/s):,Load at Break (kN):,Stress at Break (MPa):
12,6/8/2021,05:05,Cylinder,150,1,301,0,3.6,1,0.24,754.08,42.67
Sample Time,Load (kN),Stress (MPa),Long. Strain,Trans. Strain,Chan1 Deflection (mm),Chan2 Deflection (mm)
0:0:17.495,11.552,0.655002,0,0.000885,0,0
0:0:18.285,19.59,1.11006,0,0.000885,0,0
0:0:19.082,19.2386,1.08937,0,0.000885,0,0
0:0:19.872,18.7092,1.06179,0,0.000885,0,0
0:0:20.669,19.0028,1.07558,0,0.000885,0,0
0:0:21.460,21.6406,1.22727,0,0.000885,0,0
0:0:22.259,26.0399,1.47548,0,0.000885,0,0
0:0:23.061,30.0299,1.69611,0,0.000885,0,0
0:0:23.871,33.722,1.90985,0,0.000885,0,0
0:0:24.673,37.1249,2.1029,0,0.000885,0,0
0:0:25.467,39.9984,2.26148,0,0.000885,0,0
0:0:26.265,43.9306,2.48901,0,0.000885,0,0
0:0:27.058,48.2098,2.73032,0,0.000885,0,0
0:0:27.858,51.2613,2.90269,0,0.000885,0,0
0:0:28.668,54.6019,3.08885,0,0.000885,0,0
0:0:29.476,58.0048,3.2819,0,0.000885,0,0
0:0:30.271,62.3463,3.53012,0,0.000885,0,0
0:0:31.069,65.4556,3.70248,0,0.000885,0,0
0:0:31.865,68.2713,3.86106,0,0.000885,0,0
0:0:32.660,72.3147,4.09549,0,0.000885,0,0
0:0:33.469,75.8956,4.29543,0,0.000885,0,0
0:0:34.275,79.0627,4.4747,0,0.000885,0,0
0:0:35.077,83.0483,4.70222,0,0.000885,0,0
0:0:35.869,86.6247,4.90217,0,0.000885,0,0
0:0:36.669,90.4412,5.11591,0,0.000885,0,0
0:0:37.465,93.5461,5.29517,0,0.000885,0,0
0:0:38.275,97.3004,5.50891,0,0.000885,0,0
0:0:39.084,101.29,5.72954,0,0.000885,0,0
0:0:39.879,103.928,5.88123,0,0.000885,0,0
0:0:40.676,107.211,6.06739,0,0.000885,0,0
0:0:41.468,111.143,6.28802,0,0.000885,0,0
0:0:42.269,115.191,6.51555,0,0.000885,0,0
0:0:43.070,118.532,6.7086,0,0.000885,0,0
0:0:43.879,121.583,6.88097,0,0.000885,0,0
0:0:44.679,125.217,7.08781,0,0.000885,0,0
0:0:45.477,129.381,7.32223,0,0.000885,0,0
0:0:46.275,133.02,7.52907,0,0.000885,0,0
0:0:47.070,135.715,7.68076,0,0.000885,0,0
0:0:47.868,139.238,7.88071,0,0.000885,0,0
0:0:48.680,143.517,8.12202,0,0.000885,0,0
0:0:49.488,147.036,8.32197,0,0.000885,0,0
0:0:50.281,150.381,8.50813,0,0.000885,0,0
0:0:51.079,153.548,8.68739,0,0.000885,0,0
0:0:51.873,156.947,8.88045,0,0.000885,0,0
0:0:52.671,160.234,9.06661,0,0.000885,0,0
0:0:53.477,164.046,9.28034,0,0.000885,0,0
0:0:54.284,167.974,9.50787,0,0.000885,0,0
0:0:55.084,171.261,9.69403,0,0.000885,0,0
0:0:55.878,175.073,9.90777,0,0.000885,0,0
0:0:56.679,178.827,10.1215,0,0.000885,0,0
0:0:57.471,182.168,10.3077,0,0.000885,0,0
0:0:58.283,185.162,10.48,0,0.000885,0,0
0:0:59.090,189.263,10.7076,0,0.000885,0,0
0:0:59.888,192.786,10.9075,0,0.000885,0,0
0:1:0.679,195.953,11.0868,0,0.000885,0,0
0:1:1.468,199.881,11.3143,0,0.000885,0,0
0:1:2.263,202.639,11.466,0,0.000885,0,0
0:1:3.058,206.802,11.7004,0,0.000885,0,0
0:1:3.864,210.499,11.9141,0,0.000885,0,0
0:1:4.657,213.724,12.0934,0,0.000885,0,0
0:1:5.451,217.122,12.2865,0,0.000885,0,0
0:1:6.241,220.174,12.4588,0,0.000885,0,0
0:1:7.032,224.164,12.6864,0,0.000885,0,0
0:1:7.833,227.624,12.8794,0,0.000885,0,0
0:1:8.637,231.201,13.0862,0,0.000885,0,0
0:1:9.436,234.719,13.2793,0,0.000885,0,0
0:1:10.223,238.238,13.4793,0,0.000885,0,0
0:1:11.019,241.876,13.6861,0,0.000885,0,0
0:1:11.823,245.395,13.886,0,0.000885,0,0
0:1:12.618,248.914,14.086,0,0.000885,0,0
0:1:13.429,253.193,14.3273,0,0.000885,0,0
0:1:14.229,255.421,14.4514,0,0.000885,0,0
0:1:15.024,259.233,14.672,0,0.000885,0,0
0:1:15.822,262.636,14.8651,0,0.000885,0,0
0:1:16.628,266.626,15.0857,0,0.000885,0,0
0:1:17.412,270.087,15.2857,0,0.000885,0,0
0:1:18.217,273.076,15.4512,0,0.000885,0,0
0:1:19.019,277.066,15.6787,0,0.000885,0,0
0:1:19.818,281.052,15.9062,0,0.000885,0,0
0:1:20.612,284.748,16.113,0,0.000885,0,0
0:1:21.410,287.916,16.2923,0,0.000885,0,0
0:1:22.223,291.434,16.4923,0,0.000885,0,0
0:1:23.022,294.837,16.6853,0,0.000885,0,0
0:1:23.823,297.239,16.8232,0,0.000885,0,0
0:1:24.620,301.99,17.0921,0,0.000885,0,0
0:1:25.418,305.157,17.2714,0,0.000885,0,0
0:1:26.221,308.738,17.4713,0,0.000885,0,0
0:1:27.011,312.488,17.6851,0,0.000885,0,0
0:1:27.824,316.42,17.9057,0,0.000885,0,0
0:1:28.631,319.938,18.1056,0,0.000885,0,0
0:1:29.435,322.696,18.2642,0,0.000885,0,0
0:1:30.230,326.508,18.4779,0,0.000885,0,0
0:1:31.035,330.32,18.6917,0,0.000885,0,0
0:1:31.831,334.075,18.9054,0,0.000885,0,0
0:1:32.623,337.887,19.1192,0,0.000885,0,0
0:1:33.430,340.289,19.2571,0,0.000885,0,0
0:1:34.233,343.928,19.4639,0,0.000885,0,0
0:1:35.036,347.504,19.6638,0,0.000885,0,0
0:1:35.836,351.61,19.8983,0,0.000885,0,0
0:1:36.635,354.892,20.0844,0,0.000885,0,0
0:1:37.438,358.647,20.2982,0,0.000885,0,0
0:1:38.233,362.05,20.4912,0,0.000885,0,0
0:1:39.038,365.684,20.6912,0,0.000885,0,0
0:1:39.831,368.971,20.8773,0,0.000885,0,0
0:1:40.635,372.663,21.0911,0,0.000885,0,0
0:1:41.434,376.066,21.2841,0,0.000885,0,0
0:1:42.233,379.647,21.4841,0,0.000885,0,0
0:1:43.036,383.459,21.6978,0,0.000885,0,0
0:1:43.836,386.332,21.8633,0,0.000885,0,0
0:1:44.631,389.851,22.0632,0,0.000885,0,0
0:1:45.436,393.663,22.277,0,0.000885,0,0
0:1:46.231,397.004,22.4631,0,0.000885,0,0
0:1:47.025,400.878,22.6838,0,0.000885,0,0
0:1:47.832,404.161,22.8699,0,0.000885,0,0
0:1:48.637,407.795,23.0768,0,0.000885,0,0
0:1:49.434,411.607,23.2905,0,0.000885,0,0
0:1:50.235,415.13,23.4904,0,0.000885,0,0
0:1:51.024,418.413,23.6766,0,0.000885,0,0
0:1:51.823,422.047,23.8834,0,0.000885,0,0
0:1:52.612,424.805,24.042,0,0.000885,0,0
0:1:53.416,428.911,24.2695,0,0.000885,0,0
0:1:54.219,432.607,24.4833,0,0.000885,0,0
0:1:55.033,436.068,24.6763,0,0.000885,0,0
0:1:55.833,439.587,24.8763,0,0.000885,0,0
0:1:56.635,443.279,25.0831,0,0.000885,0,0
0:1:57.424,446.917,25.29,0,0.000885,0,0
0:1:58.228,450.494,25.4899,0,0.000885,0,0
0:1:59.035,453.839,25.683,0,0.000885,0,0
0:1:59.828,457.651,25.8967,0,0.000885,0,0
0:2:0.634,461.636,26.1242,0,0.000885,0,0
0:2:1.418,463.807,26.2483,0,0.000885,0,0
0:2:2.221,467.384,26.4483,0,0.000885,0,0
0:2:3.017,471.374,26.6758,0,0.000885,0,0
0:2:3.820,475.128,26.8896,0,0.000885,0,0
0:2:4.615,478.589,27.0826,0,0.000885,0,0
0:2:5.422,482.285,27.2894,0,0.000885,0,0
0:2:6.225,485.51,27.4756,0,0.000885,0,0
0:2:7.023,489.264,27.6893,0,0.000885,0,0
0:2:7.818,492.841,27.8893,0,0.000885,0,0
0:2:8.623,496.123,28.0755,0,0.000885,0,0
0:2:9.421,499.82,28.2823,0,0.000885,0,0
0:2:10.234,503.516,28.496,0,0.000885,0,0
0:2:11.029,507.56,28.7236,0,0.000885,0,0
0:2:11.822,509.788,28.8477,0,0.000885,0,0
0:2:12.618,513.307,29.0476,0,0.000885,0,0
0:2:13.424,517.475,29.282,0,0.000885,0,0
0:2:14.224,520.642,29.4613,0,0.000885,0,0
0:2:15.024,524.921,29.7026,0,0.000885,0,0
0:2:15.826,528.088,29.8819,0,0.000885,0,0
0:2:16.624,531.665,30.0887,0,0.000885,0,0
0:2:17.418,535.655,30.3094,0,0.000885,0,0
0:2:18.236,538.413,30.4679,0,0.000885,0,0
0:2:19.039,542.047,30.6748,0,0.000885,0,0
0:2:19.837,546.153,30.9092,0,0.000885,0,0
0:2:20.630,548.853,31.0609,0,0.000885,0,0
0:2:21.436,552.665,31.2746,0,0.000885,0,0
0:2:22.231,556.477,31.4884,0,0.000885,0,0
0:2:23.035,559.76,31.6745,0,0.000885,0,0
0:2:23.839,563.043,31.8607,0,0.000885,0,0
0:2:24.639,566.566,32.0606,0,0.000885,0,0
0:2:25.428,570.493,32.2813,0,0.000885,0,0
0:2:26.238,574.012,32.4812,0,0.000885,0,0
0:2:27.030,577.766,32.6949,0,0.000885,0,0
0:2:27.817,580.875,32.8742,0,0.000885,0,0
0:2:28.623,585.039,33.1086,0,0.000885,0,0
0:2:29.423,587.735,33.2603,0,0.000885,0,0
0:2:30.234,591.609,33.4809,0,0.000885,0,0
0:2:31.030,594.776,33.6602,0,0.000885,0,0
0:2:31.821,598.708,33.8808,0,0.000885,0,0
0:2:32.618,601.822,34.0532,0,0.000885,0,0
0:2:33.425,605.812,34.2807,0,0.000885,0,0
0:2:34.230,608.984,34.46,0,0.000885,0,0
0:2:35.024,612.916,34.6806,0,0.000885,0,0
0:2:35.817,616.79,34.9013,0,0.000885,0,0
0:2:36.621,620.015,35.0874,0,0.000885,0,0
0:2:37.414,623.832,35.3012,0,0.000885,0,0
0:2:38.219,627.177,35.4942,0,0.000885,0,0
0:2:39.024,630.291,35.6666,0,0.000885,0,0
0:2:39.822,633.4,35.8458,0,0.000885,0,0
0:2:40.624,637.332,36.0665,0,0.000885,0,0
0:2:41.420,641.62,36.3078,0,0.000885,0,0
0:2:42.214,644.73,36.4871,0,0.000885,0,0
0:2:43.012,648.426,36.6939,0,0.000885,0,0
0:2:43.821,651.482,36.8663,0,0.000885,0,0
0:2:44.621,655.472,37.0938,0,0.000885,0,0
0:2:45.427,658.702,37.2731,0,0.000885,0,0
0:2:46.228,662.634,37.5006,0,0.000885,0,0
0:2:47.026,665.921,37.6867,0,0.000885,0,0
0:2:47.817,668.915,37.8522,0,0.000885,0,0
0:2:48.625,672.495,38.0522,0,0.000885,0,0
0:2:49.430,676.606,38.2866,0,0.000885,0,0
0:2:50.226,679.537,38.4521,0,0.000885,0,0
0:2:51.021,683.825,38.6934,0,0.000885,0,0
0:2:51.814,687.112,38.8795,0,0.000885,0,0
0:2:52.610,690.4,39.0657,0,0.000885,0,0
0:2:53.419,694.332,39.2932,0,0.000885,0,0
0:2:54.224,697.97,39.5001,0,0.000885,0,0
0:2:55.037,701.142,39.6793,0,0.000885,0,0
0:2:55.833,704.487,39.8655,0,0.000885,0,0
0:2:56.625,708.006,40.0654,0,0.000885,0,0
0:2:57.430,711.649,40.2723,0,0.000885,0,0
0:2:58.245,715.932,40.5136,0,0.000885,0,0
0:2:59.050,717.987,40.6308,0,0.000885,0,0
0:2:59.848,721.275,40.817,0,0.000885,0,0
0:3:0.641,725.674,41.0652,0,0.000885,0,0
0:3:1.438,728.436,41.2238,0,0.000885,0,0
0:3:2.228,731.955,41.4237,0,0.000885,0,0
0:3:3.026,735.536,41.6236,0,0.000885,0,0
0:3:3.838,739.001,41.8167,0,0.000885,0,0
0:3:4.646,740.291,41.8925,0,0.000885,0,0
0:3:5.441,743.814,42.0925,0,0.000885,0,0
0:3:6.231,748.275,42.3407,0,0.000885,0,0
0:3:7.027,753.146,42.6165,0,0.000885,0,0
0:3:7.824,753.969,42.6648,0,0.000885,0,0
0:3:8.630,754.263,42.6854,0,0.000885,0,0
0:3:9.424,746.572,42.2442,0,0.000885,0,0
0:3:10.219,699.26,39.569,0,0.000885,0,0
0:3:11.039,587.445,33.2396,0,0.000885,0,0
0:3:11.216,545.859,30.8885,0,0.000885,0,0