File: DataFile2021-06-29_071323.csv
Test ID:,Date Tested:,Time:,Test Type:,Diameter Avg. (mm):,Cyl. Corr. Factor:,Height (mm):,Age (days):,Weight (kN):,Break Type:,Ramp Rate (MPa/s):,Load at Break (kN):,Stress at Break (MPa):
12,6/29/2021,07:13,Cylinder,100,1,200,0,3.6,3,0.23,336.6,42.86
Sample Time,Load (kN),Stress (MPa),Long. Strain,Trans. Strain,Chan1 Deflection (mm),Chan2 Deflection (mm)
0:0:14.387,5.57362,0.71016,0,0.000885,0,0
0:0:15.176,13.785,1.75816,0,0.000885,0,0
0:0:15.974,12.8465,1.63406,0,0.000885,0,0
0:0:16.774,12.4328,1.58579,0,0.000885,0,0
0:0:17.575,12.4906,1.59269,0,0.000885,0,0
0:0:18.380,12.9043,1.64095,0,0.000885,0,0
0:0:19.180,14.0742,1.79264,0,0.000885,0,0
0:0:19.977,15.1328,1.92364,0,0.000885,0,0
0:0:20.788,17.3036,2.20632,0,0.000885,0,0
0:0:21.594,19.4699,2.48211,0,0.000885,0,0
0:0:22.388,21.1735,2.69585,0,0.000885,0,0
0:0:23.187,22.5792,2.87511,0,0.000885,0,0
0:0:23.979,24.2828,3.08885,0,0.000885,0,0
0:0:24.780,25.3949,3.23364,0,0.000885,0,0
0:0:25.591,27.3877,3.48875,0,0.000885,0,0
0:0:26.394,28.562,3.63354,0,0.000885,0,0
0:0:27.192,30.0878,3.83349,0,0.000885,0,0
0:0:27.985,31.9071,4.06101,0,0.000885,0,0
0:0:28.786,33.6063,4.28164,0,0.000885,0,0
0:0:29.577,35.1899,4.48159,0,0.000885,0,0
0:0:30.389,36.3642,4.63328,0,0.000885,0,0
0:0:31.195,37.5341,4.77807,0,0.000885,0,0
0:0:31.994,39.8828,5.07454,0,0.000885,0,0
0:0:32.789,40.8792,5.20554,0,0.000885,0,0
0:0:33.585,43.3435,5.51581,0,0.000885,0,0
0:0:34.381,44.7491,5.69507,0,0.000885,0,0
0:0:35.180,45.8078,5.83296,0,0.000885,0,0
0:0:35.990,47.3914,6.03291,0,0.000885,0,0
0:0:36.790,49.442,6.29491,0,0.000885,0,0
0:0:37.589,50.6741,6.45349,0,0.000885,0,0
0:0:38.380,52.0798,6.63276,0,0.000885,0,0
0:0:39.180,53.6633,6.8327,0,0.000885,0,0
0:0:39.986,55.3092,7.03955,0,0.000885,0,0
0:0:40.792,57.0084,7.26018,0,0.000885,0,0
0:0:41.593,58.8277,7.48771,0,0.000885,0,0
0:0:42.388,60.2334,7.66697,0,0.000885,0,0
0:0:43.186,61.1141,7.78418,0,0.000885,0,0
0:0:43.977,63.2848,8.05997,0,0.000885,0,0
0:0:44.787,65.3933,8.32887,0,0.000885,0,0
0:0:45.597,66.1006,8.4185,0,0.000885,0,0
0:0:46.400,68.2713,8.69429,0,0.000885,0,0
0:0:47.197,69.6191,8.86666,0,0.000885,0,0
0:0:47.992,71.0826,9.05282,0,0.000885,0,0
0:0:48.788,72.6083,9.24587,0,0.000885,0,0
0:0:49.580,73.4891,9.35619,0,0.000885,0,0
0:0:50.391,75.3662,9.5975,0,0.000885,0,0
0:0:51.197,76.9498,9.79745,0,0.000885,0,0
0:0:51.997,79.1205,10.0732,0,0.000885,0,0
0:0:52.788,81.1133,10.3283,0,0.000885,0,0
0:0:53.587,82.4033,10.4938,0,0.000885,0,0
0:0:54.381,83.5198,10.6317,0,0.000885,0,0
0:0:55.192,85.9797,10.9489,0,0.000885,0,0
0:0:55.998,86.9183,11.0661,0,0.000885,0,0
0:0:56.791,88.8577,11.3143,0,0.000885,0,0
0:0:57.591,89.6183,11.4108,0,0.000885,0,0
0:0:58.381,91.024,11.5901,0,0.000885,0,0
0:0:59.180,92.5497,11.7831,0,0.000885,0,0
0:0:59.993,94.8361,12.0727,0,0.000885,0,0
0:1:0.800,96.4819,12.2865,0,0.000885,0,0
0:1:1.603,98.1233,12.4933,0,0.000885,0,0
0:1:2.397,98.8261,12.5829,0,0.000885,0,0
0:1:3.194,100.645,12.8174,0,0.000885,0,0
0:1:3.987,103.11,13.1276,0,0.000885,0,0
0:1:4.786,103.399,13.1621,0,0.000885,0,0
0:1:5.596,105.512,13.431,0,0.000885,0,0
0:1:6.401,106.98,13.624,0,0.000885,0,0
0:1:7.192,108.795,13.8516,0,0.000885,0,0
0:1:7.989,109.795,13.9826,0,0.000885,0,0
0:1:8.784,111.73,14.2239,0,0.000885,0,0
0:1:9.579,114.017,14.5204,0,0.000885,0,0
0:1:10.393,115.249,14.672,0,0.000885,0,0
0:1:11.200,116.775,14.8651,0,0.000885,0,0
0:1:12.003,118.416,15.0788,0,0.000885,0,0
0:1:12.797,119.942,15.2719,0,0.000885,0,0
0:1:13.595,121.232,15.4374,0,0.000885,0,0
0:1:14.390,122.989,15.658,0,0.000885,0,0
0:1:15.192,124.75,15.8855,0,0.000885,0,0
0:1:16.001,126.214,16.0717,0,0.000885,0,0
0:1:16.802,127.918,16.2854,0,0.000885,0,0
0:1:17.600,128.563,16.3682,0,0.000885,0,0
0:1:18.394,130.497,16.6164,0,0.000885,0,0
0:1:19.191,131.965,16.8025,0,0.000885,0,0
0:1:19.997,134.074,17.0714,0,0.000885,0,0
0:1:20.804,134.955,17.1817,0,0.000885,0,0
0:1:21.604,136.654,17.4024,0,0.000885,0,0
0:1:22.397,138.825,17.6782,0,0.000885,0,0
0:1:23.194,140.057,17.8298,0,0.000885,0,0
0:1:23.989,141.992,18.0781,0,0.000885,0,0
0:1:24.787,143.575,18.278,0,0.000885,0,0
0:1:25.597,144.634,18.4159,0,0.000885,0,0
0:1:26.396,146.511,18.6572,0,0.000885,0,0
0:1:27.198,147.859,18.8227,0,0.000885,0,0
0:1:27.990,149.91,19.0847,0,0.000885,0,0
0:1:28.787,150.497,19.1605,0,0.000885,0,0
0:1:29.583,152.489,19.4156,0,0.000885,0,0
0:1:30.391,154.718,19.6983,0,0.000885,0,0
0:1:31.198,156.422,19.919,0,0.000885,0,0
0:1:31.990,157.476,20.05,0,0.000885,0,0
0:1:32.789,159.002,20.243,0,0.000885,0,0
0:1:33.590,159.998,20.374,0,0.000885,0,0
0:1:34.388,162.405,20.6774,0,0.000885,0,0
0:1:35.193,163.574,20.8291,0,0.000885,0,0
0:1:35.999,165.042,21.0152,0,0.000885,0,0
0:1:36.799,167.213,21.291,0,0.000885,0,0
0:1:37.593,168.032,21.3944,0,0.000885,0,0
0:1:38.391,170.438,21.6978,0,0.000885,0,0
0:1:39.186,171.848,21.8771,0,0.000885,0,0
0:1:39.987,173.138,22.0425,0,0.000885,0,0
0:1:40.797,174.544,22.2218,0,0.000885,0,0
0:1:41.598,175.776,22.3804,0,0.000885,0,0
0:1:42.395,177.475,22.5941,0,0.000885,0,0
0:1:43.188,179.762,22.8906,0,0.000885,0,0
0:1:43.986,181.172,23.0699,0,0.000885,0,0
0:1:44.789,182.929,23.2905,0,0.000885,0,0
0:1:45.598,184.161,23.4491,0,0.000885,0,0
0:1:46.404,186.158,23.7042,0,0.000885,0,0
0:1:47.200,187.154,23.8283,0,0.000885,0,0
0:1:47.996,189.147,24.0834,0,0.000885,0,0
0:1:48.790,190.379,24.242,0,0.000885,0,0
0:1:49.590,191.905,24.435,0,0.000885,0,0
0:1:50.395,193.898,24.6901,0,0.000885,0,0
0:1:51.195,195.597,24.9039,0,0.000885,0,0
0:1:51.990,196.949,25.0762,0,0.000885,0,0
0:1:52.784,198.591,25.2831,0,0.000885,0,0
0:1:53.592,199.529,25.4072,0,0.000885,0,0
0:1:54.383,201.816,25.6968,0,0.000885,0,0
0:1:55.191,202.345,25.7657,0,0.000885,0,0
0:1:55.994,204.809,26.076,0,0.000885,0,0
0:1:56.788,205.979,26.2277,0,0.000885,0,0
0:1:57.585,207.505,26.4207,0,0.000885,0,0
0:1:58.389,208.853,26.5931,0,0.000885,0,0
0:1:59.185,211.144,26.8827,0,0.000885,0,0
0:1:59.990,213.252,27.1516,0,0.000885,0,0
0:2:0.793,213.839,27.2274,0,0.000885,0,0
0:2:1.590,215.832,27.4825,0,0.000885,0,0
0:2:2.389,216.655,27.5859,0,0.000885,0,0
0:2:3.187,217.709,27.7169,0,0.000885,0,0
0:2:3.988,220.058,28.0203,0,0.000885,0,0
0:2:4.785,221.584,28.2133,0,0.000885,0,0
0:2:5.588,223.225,28.4202,0,0.000885,0,0
0:2:6.393,225.685,28.7373,0,0.000885,0,0
0:2:7.186,226.334,28.8201,0,0.000885,0,0
0:2:7.979,228.501,29.0959,0,0.000885,0,0
0:2:8.792,229.439,29.2131,0,0.000885,0,0
0:2:9.593,231.494,29.4751,0,0.000885,0,0
0:2:10.397,232.375,29.5854,0,0.000885,0,0
0:2:11.198,234.426,29.8474,0,0.000885,0,0
0:2:11.993,235.716,30.0129,0,0.000885,0,0
0:2:12.788,237.944,30.2956,0,0.000885,0,0
0:2:13.585,239.354,30.4748,0,0.000885,0,0
0:2:14.387,241.054,30.6886,0,0.000885,0,0
0:2:15.193,242.17,30.8334,0,0.000885,0,0
0:2:15.995,243.282,30.9781,0,0.000885,0,0
0:2:16.789,245.804,31.2953,0,0.000885,0,0
0:2:17.587,247.036,31.4539,0,0.000885,0,0
0:2:18.389,248.62,31.6538,0,0.000885,0,0
0:2:19.187,250.439,31.8883,0,0.000885,0,0
0:2:19.989,252.548,32.1571,0,0.000885,0,0
0:2:20.793,253.135,32.233,0,0.000885,0,0
0:2:21.592,254.603,32.4191,0,0.000885,0,0
0:2:22.389,256.538,32.6605,0,0.000885,0,0
0:2:23.192,258.357,32.8949,0,0.000885,0,0
0:2:23.988,259.527,33.0466,0,0.000885,0,0
0:2:24.794,261.231,33.2603,0,0.000885,0,0
0:2:25.598,262.521,33.4258,0,0.000885,0,0
0:2:26.392,264.162,33.6326,0,0.000885,0,0
0:2:27.193,265.216,33.7705,0,0.000885,0,0
0:2:27.989,267.093,34.0049,0,0.000885,0,0
0:2:28.795,269.322,34.2945,0,0.000885,0,0
0:2:29.580,270.496,34.4393,0,0.000885,0,0
0:2:30.387,272.316,34.6737,0,0.000885,0,0
0:2:31.186,274.251,34.9219,0,0.000885,0,0
0:2:31.987,275.189,35.0392,0,0.000885,0,0
0:2:32.786,276.831,35.246,0,0.000885,0,0
0:2:33.593,278.356,35.4391,0,0.000885,0,0
0:2:34.393,279.94,35.6459,0,0.000885,0,0
0:2:35.188,281.346,35.8252,0,0.000885,0,0
0:2:35.990,282.693,35.9906,0,0.000885,0,0
0:2:36.794,284.633,36.2388,0,0.000885,0,0
0:2:37.587,286.741,36.5077,0,0.000885,0,0
0:2:38.397,288.151,36.687,0,0.000885,0,0
0:2:39.184,289.673,36.8801,0,0.000885,0,0
0:2:39.996,290.789,37.0248,0,0.000885,0,0
0:2:40.796,292.195,37.2041,0,0.000885,0,0
0:2:41.590,293.898,37.4178,0,0.000885,0,0
0:2:42.384,295.362,37.604,0,0.000885,0,0
0:2:43.189,296.83,37.7902,0,0.000885,0,0
0:2:43.984,298.823,38.0453,0,0.000885,0,0
0:2:44.789,300.233,38.2245,0,0.000885,0,0
0:2:45.595,302.168,38.4727,0,0.000885,0,0
0:2:46.390,303.867,38.6865,0,0.000885,0,0
0:2:47.191,305.508,38.9002,0,0.000885,0,0
0:2:47.988,306.389,39.0105,0,0.000885,0,0
0:2:48.790,308.796,39.3139,0,0.000885,0,0
0:2:49.585,309.32,39.3829,0,0.000885,0,0
0:2:50.391,310.788,39.569,0,0.000885,0,0
0:2:51.193,313.426,39.9069,0,0.000885,0,0
0:2:51.984,314.076,39.9896,0,0.000885,0,0
0:2:52.793,315.833,40.2102,0,0.000885,0,0
0:2:53.593,317.474,40.424,0,0.000885,0,0
0:2:54.393,318.591,40.5619,0,0.000885,0,0
0:2:55.196,321.17,40.8928,0,0.000885,0,0
0:2:56.001,322.403,41.0514,0,0.000885,0,0
0:2:56.794,323.341,41.1686,0,0.000885,0,0
0:2:57.599,325.218,41.4099,0,0.000885,0,0
0:2:58.384,326.388,41.5547,0,0.000885,0,0
0:2:59.186,328.328,41.8029,0,0.000885,0,0
0:2:59.998,329.555,41.9615,0,0.000885,0,0
0:3:0.800,330.378,42.0649,0,0.000885,0,0
0:3:1.593,331.553,42.2166,0,0.000885,0,0
0:3:2.391,333.545,42.4717,0,0.000885,0,0
0:3:3.195,335.187,42.6785,0,0.000885,0,0
0:3:3.991,336.535,42.8509,0,0.000885,0,0
0:3:4.792,336.241,42.8095,0,0.000885,0,0
0:3:5.595,335.596,42.7268,0,0.000885,0,0
0:3:6.394,327.856,41.7409,0,0.000885,0,0
0:3:7.191,321.055,40.879,0,0.000885,0,0
0:3:7.986,303.925,38.7003,0,0.000885,0,0
0:3:8.796,255.541,32.5364,0,0.000885,0,0
0:3:9.474,236.245,30.0818,0,0.000885,0,0