File: DataFile2021-06-07_044139.csv
Test ID:,Date Tested:,Time:,Test Type:,Diameter Avg. (mm):,Cyl. Corr. Factor:,Height (mm):,Age (days):,Weight (kN):,Break Type:,Ramp Rate (MPa/s):,Load at Break (kN):,Stress at Break (MPa):
12,6/7/2021,04:41,Cylinder,100,1,200,0,3.6,3,0.24,480.29,61.15
Sample Time,Load (kN),Stress (MPa),Long. Strain,Trans. Strain,Chan1 Deflection (mm),Chan2 Deflection (mm)
0:0:19.537,6.57002,0.834266,0,0.000885,0,0
0:0:20.640,11.3786,1.4479,0,0.000885,0,0
0:0:21.753,10.6179,1.35137,0,0.000885,0,0
0:0:22.851,10.7914,1.37206,0,0.000885,0,0
0:0:23.939,12.6685,1.61337,0,0.000885,0,0
0:0:25.038,15.2485,1.94432,0,0.000885,0,0
0:0:26.152,17.9486,2.28216,0,0.000885,0,0
0:0:27.257,19.9992,2.54417,0,0.000885,0,0
0:0:28.353,22.5792,2.87511,0,0.000885,0,0
0:0:29.458,25.3371,3.22675,0,0.000885,0,0
0:0:30.561,27.3877,3.48875,0,0.000885,0,0
0:0:31.667,29.2648,3.72317,0,0.000885,0,0
0:0:32.761,31.0263,3.9507,0,0.000885,0,0
0:0:33.855,33.4907,4.26096,0,0.000885,0,0
0:0:34.950,35.777,4.55743,0,0.000885,0,0
0:0:36.065,37.9478,4.83322,0,0.000885,0,0
0:0:37.168,39.5313,5.03317,0,0.000885,0,0
0:0:38.263,41.582,5.29517,0,0.000885,0,0
0:0:39.358,44.3399,5.64681,0,0.000885,0,0
0:0:40.468,46.3905,5.90881,0,0.000885,0,0
0:0:41.570,48.3878,6.16391,0,0.000885,0,0
0:0:42.666,51.0834,6.50176,0,0.000885,0,0
0:0:43.761,52.4356,6.67413,0,0.000885,0,0
0:0:44.858,55.2469,7.03265,0,0.000885,0,0
0:0:45.972,57.2442,7.28776,0,0.000885,0,0
0:0:47.071,59.6462,7.59113,0,0.000885,0,0
0:0:48.167,61.6435,7.84623,0,0.000885,0,0
0:0:49.260,63.6941,8.10823,0,0.000885,0,0
0:0:50.363,65.6869,8.36334,0,0.000885,0,0
0:0:51.475,67.6219,8.61155,0,0.000885,0,0
0:0:52.573,69.7926,8.88734,0,0.000885,0,0
0:0:53.668,71.9633,9.16313,0,0.000885,0,0
0:0:54.762,74.312,9.45961,0,0.000885,0,0
0:0:55.871,77.1855,9.82503,0,0.000885,0,0
0:0:56.975,79.3563,10.1008,0,0.000885,0,0
0:0:58.067,80.8197,10.287,0,0.000885,0,0
0:0:59.163,82.9326,10.5559,0,0.000885,0,0
0:1:0.266,85.397,10.873,0,0.000885,0,0
0:1:1.377,87.5054,11.1419,0,0.000885,0,0
0:1:2.471,89.089,11.3419,0,0.000885,0,0
0:1:3.563,91.7891,11.6866,0,0.000885,0,0
0:1:4.658,93.8975,11.9555,0,0.000885,0,0
0:1:5.769,96.3618,12.2727,0,0.000885,0,0
0:1:6.870,98.5904,12.5554,0,0.000885,0,0
0:1:7.966,100.819,12.838,0,0.000885,0,0
0:1:9.061,102.816,13.0931,0,0.000885,0,0
0:1:10.156,104.515,13.3069,0,0.000885,0,0
0:1:11.270,106.393,13.5482,0,0.000885,0,0
0:1:12.368,108.679,13.8378,0,0.000885,0,0
0:1:13.461,110.85,14.1136,0,0.000885,0,0
0:1:14.557,113.487,14.4514,0,0.000885,0,0
0:1:15.670,115.6,14.7203,0,0.000885,0,0
0:1:16.771,117.829,15.003,0,0.000885,0,0
0:1:17.866,119.297,15.1892,0,0.000885,0,0
0:1:18.962,122.05,15.5408,0,0.000885,0,0
0:1:20.058,123.812,15.7614,0,0.000885,0,0
0:1:21.170,126.214,16.0717,0,0.000885,0,0
0:1:22.268,128.211,16.3268,0,0.000885,0,0
0:1:23.365,130.675,16.637,0,0.000885,0,0
0:1:24.462,132.904,16.9197,0,0.000885,0,0
0:1:25.566,134.719,17.1542,0,0.000885,0,0
0:1:26.675,136.654,17.4024,0,0.000885,0,0
0:1:27.768,139.118,17.7126,0,0.000885,0,0
0:1:28.863,141.698,18.0436,0,0.000885,0,0
0:1:29.966,143.402,18.2573,0,0.000885,0,0
0:1:31.077,146.155,18.6089,0,0.000885,0,0
0:1:32.171,148.095,18.8572,0,0.000885,0,0
0:1:33.267,150.087,19.1123,0,0.000885,0,0
0:1:34.362,152.022,19.3536,0,0.000885,0,0
0:1:35.468,154.367,19.657,0,0.000885,0,0
0:1:36.574,156.537,19.9327,0,0.000885,0,0
0:1:37.666,158.886,20.2292,0,0.000885,0,0
0:1:38.763,161.052,20.505,0,0.000885,0,0
0:1:39.857,162.462,20.6843,0,0.000885,0,0
0:1:40.972,165.1,21.0221,0,0.000885,0,0
0:1:42.073,167.449,21.3186,0,0.000885,0,0
0:1:43.167,169.384,21.5668,0,0.000885,0,0
0:1:44.260,171.492,21.8357,0,0.000885,0,0
0:1:45.360,173.605,22.1046,0,0.000885,0,0
0:1:46.473,176.07,22.4149,0,0.000885,0,0
0:1:47.568,178.004,22.6631,0,0.000885,0,0
0:1:48.664,180.233,22.9458,0,0.000885,0,0
0:1:49.759,182.284,23.2078,0,0.000885,0,0
0:1:50.873,184.161,23.4491,0,0.000885,0,0
0:1:51.974,186.745,23.78,0,0.000885,0,0
0:1:53.066,188.618,24.0144,0,0.000885,0,0
0:1:54.160,190.909,24.304,0,0.000885,0,0
0:1:55.263,193.369,24.6212,0,0.000885,0,0
0:1:56.367,195.366,24.8763,0,0.000885,0,0
0:1:57.454,197.359,25.1314,0,0.000885,0,0
0:1:58.551,199.529,25.4072,0,0.000885,0,0
0:1:59.646,201.642,25.6761,0,0.000885,0,0
0:2:0.745,203.751,25.945,0,0.000885,0,0
0:2:1.859,205.979,26.2277,0,0.000885,0,0
0:2:2.954,208.208,26.5103,0,0.000885,0,0
0:2:4.064,210.73,26.8344,0,0.000885,0,0
0:2:5.155,212.492,27.055,0,0.000885,0,0
0:2:6.261,214.836,27.3515,0,0.000885,0,0
0:2:7.355,217.006,27.6273,0,0.000885,0,0
0:2:8.451,219.119,27.8962,0,0.000885,0,0
0:2:9.555,221.348,28.1858,0,0.000885,0,0
0:2:10.661,223.225,28.4202,0,0.000885,0,0
0:2:11.766,226.041,28.7787,0,0.000885,0,0
0:2:12.852,227.74,28.9993,0,0.000885,0,0
0:2:13.961,229.911,29.2751,0,0.000885,0,0
0:2:15.046,231.961,29.5371,0,0.000885,0,0
0:2:16.151,234.252,29.8267,0,0.000885,0,0
0:2:17.261,236.361,30.0956,0,0.000885,0,0
0:2:18.346,238.416,30.3576,0,0.000885,0,0
0:2:19.442,240.587,30.6334,0,0.000885,0,0
0:2:20.542,242.579,30.8885,0,0.000885,0,0
0:2:21.642,245.159,31.2126,0,0.000885,0,0
0:2:22.729,246.916,31.4401,0,0.000885,0,0
0:2:23.814,249.265,31.7366,0,0.000885,0,0
0:2:24.900,251.316,31.9986,0,0.000885,0,0
0:2:26.006,253.722,32.3019,0,0.000885,0,0
0:2:27.103,255.715,32.557,0,0.000885,0,0
0:2:28.191,258.064,32.8604,0,0.000885,0,0
0:2:29.276,259.705,33.0673,0,0.000885,0,0
0:2:30.374,261.934,33.3499,0,0.000885,0,0
0:2:31.469,264.22,33.6395,0,0.000885,0,0
0:2:32.556,266.391,33.9153,0,0.000885,0,0
0:2:33.665,268.561,34.1911,0,0.000885,0,0
0:2:34.751,270.79,34.4807,0,0.000885,0,0
0:2:35.856,273.018,34.7634,0,0.000885,0,0
0:2:36.949,274.953,35.0116,0,0.000885,0,0
0:2:38.035,277.004,35.2667,0,0.000885,0,0
0:2:39.125,279.411,35.5769,0,0.000885,0,0
0:2:40.222,281.697,35.8665,0,0.000885,0,0
0:2:41.324,283.81,36.1354,0,0.000885,0,0
0:2:42.414,285.803,36.3905,0,0.000885,0,0
0:2:43.499,287.8,36.6456,0,0.000885,0,0
0:2:44.584,289.851,36.9076,0,0.000885,0,0
0:2:45.688,291.906,37.1696,0,0.000885,0,0
0:2:46.783,294.423,37.4868,0,0.000885,0,0
0:2:47.872,296.363,37.735,0,0.000885,0,0
0:2:48.969,298.823,38.0453,0,0.000885,0,0
0:2:50.067,300.291,38.2314,0,0.000885,0,0
0:2:51.165,302.928,38.5693,0,0.000885,0,0
0:2:52.269,305.099,38.8451,0,0.000885,0,0
0:2:53.354,307.506,39.1553,0,0.000885,0,0
0:2:54.443,309.205,39.3691,0,0.000885,0,0
0:2:55.548,311.318,39.638,0,0.000885,0,0
0:2:56.642,313.546,39.9206,0,0.000885,0,0
0:2:57.731,315.948,40.2309,0,0.000885,0,0
0:2:58.820,317.888,40.4722,0,0.000885,0,0
0:2:59.907,319.587,40.6929,0,0.000885,0,0
0:3:1.011,322.696,41.0859,0,0.000885,0,0
0:3:2.101,324.338,41.2927,0,0.000885,0,0
0:3:3.187,326.33,41.5478,0,0.000885,0,0
0:3:4.276,328.679,41.8512,0,0.000885,0,0
0:3:5.382,330.788,42.1201,0,0.000885,0,0
0:3:6.477,333.074,42.4097,0,0.000885,0,0
0:3:7.567,335.245,42.6854,0,0.000885,0,0
0:3:8.660,337.122,42.9268,0,0.000885,0,0
0:3:9.751,339.177,43.1819,0,0.000885,0,0
0:3:10.853,341.463,43.4783,0,0.000885,0,0
0:3:11.960,344.043,43.8024,0,0.000885,0,0
0:3:13.048,345.627,44.0092,0,0.000885,0,0
0:3:14.134,348.033,44.3126,0,0.000885,0,0
0:3:15.234,350.026,44.5677,0,0.000885,0,0
0:3:16.336,352.255,44.8504,0,0.000885,0,0
0:3:17.421,354.483,45.1331,0,0.000885,0,0
0:3:18.507,356.654,45.4089,0,0.000885,0,0
0:3:19.601,358.531,45.6502,0,0.000885,0,0
0:3:20.702,360.817,45.9398,0,0.000885,0,0
0:3:21.791,362.637,46.1742,0,0.000885,0,0
0:3:22.880,364.808,46.45,0,0.000885,0,0
0:3:23.969,367.561,46.8016,0,0.000885,0,0
0:3:25.078,369.38,47.0291,0,0.000885,0,0
0:3:26.177,371.257,47.2705,0,0.000885,0,0
0:3:27.272,373.664,47.5738,0,0.000885,0,0
0:3:28.367,376.653,47.9599,0,0.000885,0,0
0:3:29.473,378.237,48.1599,0,0.000885,0,0
0:3:30.577,380.23,48.415,0,0.000885,0,0
0:3:31.673,382.107,48.6494,0,0.000885,0,0
0:3:32.772,384.629,48.9735,0,0.000885,0,0
0:3:33.867,386.564,49.2217,0,0.000885,0,0
0:3:34.978,389.264,49.5595,0,0.000885,0,0
0:3:36.075,391.199,49.8077,0,0.000885,0,0
0:3:37.180,393.192,50.0628,0,0.000885,0,0
0:3:38.268,395.54,50.3593,0,0.000885,0,0
0:3:39.375,397.475,50.6075,0,0.000885,0,0
0:3:40.481,399.175,50.8213,0,0.000885,0,0
0:3:41.575,401.697,51.1453,0,0.000885,0,0
0:3:42.672,404.103,51.4487,0,0.000885,0,0
0:3:43.776,406.683,51.7796,0,0.000885,0,0
0:3:44.873,408.382,52.0003,0,0.000885,0,0
0:3:45.976,410.611,52.2829,0,0.000885,0,0
0:3:47.074,412.488,52.5174,0,0.000885,0,0
0:3:48.180,414.659,52.7932,0,0.000885,0,0
0:3:49.276,416.945,53.0896,0,0.000885,0,0
0:3:50.374,419,53.3516,0,0.000885,0,0
0:3:51.473,421.874,53.7171,0,0.000885,0,0
0:3:52.577,423.337,53.9032,0,0.000885,0,0
0:3:53.674,425.45,54.1721,0,0.000885,0,0
0:3:54.782,427.563,54.441,0,0.000885,0,0
0:3:55.883,429.672,54.7099,0,0.000885,0,0
0:3:56.971,432.256,55.034,0,0.000885,0,0
0:3:58.075,433.84,55.2408,0,0.000885,0,0
0:3:59.170,436.362,55.558,0,0.000885,0,0
0:4:0.276,438.47,55.8268,0,0.000885,0,0
0:4:1.371,440.756,56.1164,0,0.000885,0,0
0:4:2.478,442.869,56.3853,0,0.000885,0,0
0:4:3.575,444.924,56.6473,0,0.000885,0,0
0:4:4.672,447.269,56.9507,0,0.000885,0,0
0:4:5.777,448.737,57.1369,0,0.000885,0,0
0:4:6.878,451.081,57.4333,0,0.000885,0,0
0:4:7.972,453.252,57.7091,0,0.000885,0,0
0:4:9.077,455.654,58.0125,0,0.000885,0,0
0:4:10.185,458.002,58.3159,0,0.000885,0,0
0:4:11.279,459.528,58.5089,0,0.000885,0,0
0:4:12.363,461.463,58.7571,0,0.000885,0,0
0:4:13.472,463.865,59.0605,0,0.000885,0,0
0:4:14.568,466.507,59.3983,0,0.000885,0,0
0:4:15.675,468.909,59.7017,0,0.000885,0,0
0:4:16.780,470.844,59.9499,0,0.000885,0,0
0:4:17.877,472.37,60.143,0,0.000885,0,0
0:4:18.973,474.074,60.3636,0,0.000885,0,0
0:4:20.079,476.124,60.6187,0,0.000885,0,0
0:4:21.182,478.059,60.8669,0,0.000885,0,0
0:4:22.277,479.821,61.0944,0,0.000885,0,0
0:4:23.369,479.469,61.0462,0,0.000885,0,0
0:4:24.473,465.155,59.226,0,0.000885,0,0
0:4:25.575,441.464,56.2061,0,0.000885,0,0
0:4:26.677,431.9,54.9926,0,0.000885,0,0
0:4:27.770,433.719,55.2201,0,0.000885,0,0
0:4:28.876,428.795,54.5927,0,0.000885,0,0
0:4:29.981,420.232,53.5033,0,0.000885,0,0
0:4:31.075,421.287,53.6412,0,0.000885,0,0
0:4:32.175,422.928,53.8481,0,0.000885,0,0
0:4:33.268,422.634,53.8136,0,0.000885,0,0
0:4:34.352,420.526,53.5447,0,0.000885,0,0
0:4:35.455,416.83,53.0689,0,0.000885,0,0
0:4:36.548,411.376,52.3795,0,0.000885,0,0
0:4:37.632,381.64,48.5942,0,0.000885,0,0
0:4:38.718,372.957,47.4842,0,0.000885,0,0
0:4:39.804,363.985,46.3466,0,0.000885,0,0
0:4:40.907,352.139,44.8366,0,0.000885,0,0
0:4:41.994,338.59,43.1129,0,0.000885,0,0
0:4:42.205,336.361,42.8233,0,0.000885,0,0