File: DataFile2021-06-07_065231.csv
Test ID:,Date Tested:,Time:,Test Type:,Diameter Avg. (mm):,Cyl. Corr. Factor:,Height (mm):,Age (days):,Weight (kN):,Break Type:,Ramp Rate (MPa/s):,Load at Break (kN):,Stress at Break (MPa):
12,6/7/2021,06:52,Cylinder,100,1,200,0,3.6,3,0.24,302.34,38.49
Sample Time,Load (kN),Stress (MPa),Long. Strain,Trans. Strain,Chan1 Deflection (mm),Chan2 Deflection (mm)
0:0:17.435,6.39209,0.813581,0,0.000885,0,0
0:0:18.132,9.61706,1.22727,0,0.000885,0,0
0:0:18.821,9.44357,1.19969,0,0.000885,0,0
0:0:19.518,9.09216,1.15832,0,0.000885,0,0
0:0:20.213,9.67933,1.23416,0,0.000885,0,0
0:0:20.905,10.5556,1.34448,0,0.000885,0,0
0:0:21.603,12.8465,1.63406,0,0.000885,0,0
0:0:22.297,14.4879,1.84779,0,0.000885,0,0
0:0:22.999,15.8935,2.02706,0,0.000885,0,0
0:0:23.707,17.7128,2.25459,0,0.000885,0,0
0:0:24.411,19.412,2.47522,0,0.000885,0,0
0:0:25.106,20.5285,2.61311,0,0.000885,0,0
0:0:25.805,22.2856,2.84064,0,0.000885,0,0
0:0:26.500,23.3443,2.97164,0,0.000885,0,0
0:0:27.196,24.2828,3.08885,0,0.000885,0,0
0:0:27.897,25.3371,3.22675,0,0.000885,0,0
0:0:28.607,26.8628,3.4198,0,0.000885,0,0
0:0:29.315,28.9134,3.6818,0,0.000885,0,0
0:0:30.010,29.9098,3.80591,0,0.000885,0,0
0:0:30.706,31.4934,4.01275,0,0.000885,0,0
0:0:31.405,32.4943,4.13685,0,0.000885,0,0
0:0:32.098,34.3714,4.37817,0,0.000885,0,0
0:0:32.796,35.6614,4.54365,0,0.000885,0,0
0:0:33.505,37.0092,4.70912,0,0.000885,0,0
0:0:34.209,37.712,4.79875,0,0.000885,0,0
0:0:34.910,39.2956,5.00559,0,0.000885,0,0
0:0:35.604,40.8213,5.19865,0,0.000885,0,0
0:0:36.299,42.3471,5.3917,0,0.000885,0,0
0:0:36.999,43.8105,5.57786,0,0.000885,0,0
0:0:37.697,45.1005,5.74333,0,0.000885,0,0
0:0:38.407,46.862,5.96397,0,0.000885,0,0
0:0:39.113,47.6227,6.06049,0,0.000885,0,0
0:0:39.808,49.2062,6.26733,0,0.000885,0,0
0:0:40.505,50.9099,6.48107,0,0.000885,0,0
0:0:41.205,51.8485,6.59828,0,0.000885,0,0
0:0:41.899,53.6633,6.8327,0,0.000885,0,0
0:0:42.596,55.1891,7.02576,0,0.000885,0,0
0:0:43.305,55.5405,7.07402,0,0.000885,0,0
0:0:44.012,57.5377,7.32913,0,0.000885,0,0
0:0:44.711,58.592,7.46013,0,0.000885,0,0
0:0:45.407,59.9398,7.6325,0,0.000885,0,0
0:0:46.098,61.7591,7.86002,0,0.000885,0,0
0:0:46.798,62.9913,8.0186,0,0.000885,0,0
0:0:47.496,64.3969,8.19787,0,0.000885,0,0
0:0:48.199,65.4556,8.33576,0,0.000885,0,0
0:0:48.907,67.2705,8.56329,0,0.000885,0,0
0:0:49.607,68.7384,8.74945,0,0.000885,0,0
0:0:50.302,69.7926,8.88734,0,0.000885,0,0
0:0:51.001,70.9091,9.02524,0,0.000885,0,0
0:0:51.696,72.1413,9.18382,0,0.000885,0,0
0:0:52.391,73.7827,9.39755,0,0.000885,0,0
0:0:53.102,75.5397,9.61819,0,0.000885,0,0
0:0:53.808,76.5984,9.75608,0,0.000885,0,0
0:0:54.507,77.5948,9.88019,0,0.000885,0,0
0:0:55.204,79.4141,10.1077,0,0.000885,0,0
0:0:55.898,80.584,10.2594,0,0.000885,0,0
0:0:56.598,82.6391,10.5214,0,0.000885,0,0
0:0:57.294,83.5776,10.6386,0,0.000885,0,0
0:0:57.998,85.219,10.8523,0,0.000885,0,0
0:0:58.706,86.4512,11.004,0,0.000885,0,0
0:0:59.404,87.5054,11.1419,0,0.000885,0,0
0:1:0.103,89.1468,11.3488,0,0.000885,0,0
0:1:0.800,90.7304,11.5556,0,0.000885,0,0
0:1:1.492,91.7312,11.6797,0,0.000885,0,0
0:1:2.191,92.8433,11.8245,0,0.000885,0,0
0:1:2.889,94.6626,12.052,0,0.000885,0,0
0:1:3.599,95.7747,12.1968,0,0.000885,0,0
0:1:4.304,97.5362,12.4175,0,0.000885,0,0
0:1:4.999,98.4747,12.5416,0,0.000885,0,0
0:1:5.694,100.294,12.7691,0,0.000885,0,0
0:1:6.394,101.758,12.9552,0,0.000885,0,0
0:1:7.087,102.46,13.0449,0,0.000885,0,0
0:1:7.784,103.635,13.1966,0,0.000885,0,0
0:1:8.495,105.454,13.4241,0,0.000885,0,0
0:1:9.201,106.802,13.5965,0,0.000885,0,0
0:1:9.901,108.15,13.7688,0,0.000885,0,0
0:1:10.597,109.853,13.9895,0,0.000885,0,0
0:1:11.293,110.965,14.1274,0,0.000885,0,0
0:1:11.992,112.255,14.2928,0,0.000885,0,0
0:1:12.685,113.545,14.4583,0,0.000885,0,0
0:1:13.393,115.485,14.7065,0,0.000885,0,0
0:1:14.098,116.245,14.803,0,0.000885,0,0
0:1:14.797,117.829,15.003,0,0.000885,0,0
0:1:15.497,119.061,15.1616,0,0.000885,0,0
0:1:16.193,120.409,15.3339,0,0.000885,0,0
0:1:16.888,122.402,15.5822,0,0.000885,0,0
0:1:17.587,123.634,15.7407,0,0.000885,0,0
0:1:18.296,124.515,15.851,0,0.000885,0,0
0:1:19.002,125.569,15.9889,0,0.000885,0,0
0:1:19.698,127.74,16.2647,0,0.000885,0,0
0:1:20.394,128.856,16.4095,0,0.000885,0,0
0:1:21.094,130.026,16.5543,0,0.000885,0,0
0:1:21.786,131.903,16.7956,0,0.000885,0,0
0:1:22.485,133.193,16.9611,0,0.000885,0,0
0:1:23.194,134.719,17.1542,0,0.000885,0,0
0:1:23.898,135.6,17.2645,0,0.000885,0,0
0:1:24.599,137.241,17.4713,0,0.000885,0,0
0:1:25.294,138.825,17.6782,0,0.000885,0,0
0:1:25.989,140.057,17.8298,0,0.000885,0,0
0:1:26.687,141.467,18.0091,0,0.000885,0,0
0:1:27.383,142.872,18.1884,0,0.000885,0,0
0:1:28.086,143.811,18.3125,0,0.000885,0,0
0:1:28.795,145.217,18.4917,0,0.000885,0,0
0:1:29.496,147.094,18.7262,0,0.000885,0,0
0:1:30.194,147.801,18.8158,0,0.000885,0,0
0:1:30.890,149.207,18.9951,0,0.000885,0,0
0:1:31.583,150.906,19.2157,0,0.000885,0,0
0:1:32.291,152.196,19.3812,0,0.000885,0,0
0:1:32.990,154.135,19.6225,0,0.000885,0,0
0:1:33.697,154.135,19.6225,0,0.000885,0,0
0:1:34.403,156.364,19.9121,0,0.000885,0,0
0:1:35.100,157.534,20.0568,0,0.000885,0,0
0:1:35.795,159.18,20.2637,0,0.000885,0,0
0:1:36.495,160.349,20.4154,0,0.000885,0,0
0:1:37.191,162.227,20.6567,0,0.000885,0,0
0:1:37.897,163.517,20.8222,0,0.000885,0,0
0:1:38.602,164.513,20.9463,0,0.000885,0,0
0:1:39.302,165.923,21.1255,0,0.000885,0,0
0:1:40.001,167.035,21.2703,0,0.000885,0,0
0:1:40.699,168.912,21.5047,0,0.000885,0,0
0:1:41.391,170.144,21.6633,0,0.000885,0,0
0:1:42.090,171.492,21.8357,0,0.000885,0,0
0:1:42.788,173.196,22.0494,0,0.000885,0,0
0:1:43.498,173.605,22.1046,0,0.000885,0,0
0:1:44.203,175.66,22.3666,0,0.000885,0,0
0:1:44.899,177.008,22.539,0,0.000885,0,0
0:1:45.594,177.711,22.6286,0,0.000885,0,0
0:1:46.293,179.001,22.7941,0,0.000885,0,0
0:1:46.987,181.35,23.0905,0,0.000885,0,0
0:1:47.692,182.519,23.2422,0,0.000885,0,0
0:1:48.402,183.752,23.3939,0,0.000885,0,0
0:1:49.108,185.687,23.6421,0,0.000885,0,0
0:1:49.806,186.038,23.6904,0,0.000885,0,0
0:1:50.504,188.093,23.9455,0,0.000885,0,0
0:1:51.196,189.147,24.0834,0,0.000885,0,0
0:1:51.896,190.495,24.2558,0,0.000885,0,0
0:1:52.591,192.55,24.5178,0,0.000885,0,0
0:1:53.292,194.014,24.7039,0,0.000885,0,0
0:1:53.993,194.307,24.7384,0,0.000885,0,0
0:1:54.691,196.304,24.9935,0,0.000885,0,0
0:1:55.379,198.004,25.2072,0,0.000885,0,0
0:1:56.093,198.475,25.2693,0,0.000885,0,0
0:1:56.780,200.232,25.4968,0,0.000885,0,0
0:1:57.472,201.522,25.6554,0,0.000885,0,0
0:1:58.178,203.164,25.8691,0,0.000885,0,0
0:1:58.876,204.689,26.0622,0,0.000885,0,0
0:1:59.571,205.512,26.1656,0,0.000885,0,0
0:2:0.262,207.154,26.3724,0,0.000885,0,0
0:2:0.952,208.501,26.5448,0,0.000885,0,0
0:2:1.645,209.676,26.6965,0,0.000885,0,0
0:2:2.334,210.672,26.8206,0,0.000885,0,0
0:2:3.037,212.492,27.055,0,0.000885,0,0
0:2:3.737,214.075,27.255,0,0.000885,0,0
0:2:4.432,215.307,27.4136,0,0.000885,0,0
0:2:5.127,216.419,27.5583,0,0.000885,0,0
0:2:5.817,217.945,27.7514,0,0.000885,0,0
0:2:6.508,218.999,27.8824,0,0.000885,0,0
0:2:7.200,220.761,28.1099,0,0.000885,0,0
0:2:7.896,222.402,28.3168,0,0.000885,0,0
0:2:8.599,223.577,28.4685,0,0.000885,0,0
0:2:9.298,224.751,28.6132,0,0.000885,0,0
0:2:9.986,226.041,28.7787,0,0.000885,0,0
0:2:10.679,227.682,28.9925,0,0.000885,0,0
0:2:11.371,228.794,29.1303,0,0.000885,0,0
0:2:12.068,229.617,29.2338,0,0.000885,0,0
0:2:12.764,231.316,29.4544,0,0.000885,0,0
0:2:13.468,232.784,29.6406,0,0.000885,0,0
0:2:14.167,234.252,29.8267,0,0.000885,0,0
0:2:14.870,235.716,30.0129,0,0.000885,0,0
0:2:15.589,237.184,30.199,0,0.000885,0,0
0:2:16.280,238.531,30.3714,0,0.000885,0,0
0:2:16.983,239.47,30.4886,0,0.000885,0,0
0:2:17.680,241.463,30.7437,0,0.000885,0,0
0:2:18.387,243.046,30.9437,0,0.000885,0,0
0:2:19.086,243.691,31.0264,0,0.000885,0,0
0:2:19.781,245.101,31.2057,0,0.000885,0,0
0:2:20.474,246.979,31.447,0,0.000885,0,0
0:2:21.193,248.033,31.578,0,0.000885,0,0
0:2:21.887,249.794,31.8055,0,0.000885,0,0
0:2:22.592,251.084,31.971,0,0.000885,0,0
0:2:23.295,252.606,32.164,0,0.000885,0,0
0:2:23.997,253.958,32.3364,0,0.000885,0,0
0:2:24.694,254.954,32.4605,0,0.000885,0,0
0:2:25.387,256.653,32.6811,0,0.000885,0,0
0:2:26.077,257.712,32.8121,0,0.000885,0,0
0:2:26.777,259.233,33.0052,0,0.000885,0,0
0:2:27.491,260.35,33.15,0,0.000885,0,0
0:2:28.196,261.462,33.2879,0,0.000885,0,0
0:2:28.895,263.046,33.4947,0,0.000885,0,0
0:2:29.589,264.807,33.7154,0,0.000885,0,0
0:2:30.290,265.981,33.867,0,0.000885,0,0
0:2:30.989,267.093,34.0049,0,0.000885,0,0
0:2:31.682,268.971,34.2463,0,0.000885,0,0
0:2:32.371,270.612,34.4531,0,0.000885,0,0
0:2:33.072,272.138,34.6531,0,0.000885,0,0
0:2:33.775,272.609,34.7082,0,0.000885,0,0
0:2:34.471,274.193,34.9082,0,0.000885,0,0
0:2:35.174,275.131,35.0323,0,0.000885,0,0
0:2:35.887,276.831,35.246,0,0.000885,0,0
0:2:36.582,278.472,35.4528,0,0.000885,0,0
0:2:37.290,279.589,35.5976,0,0.000885,0,0
0:2:37.979,281.403,35.8321,0,0.000885,0,0
0:2:38.683,282.52,35.9699,0,0.000885,0,0
0:2:39.385,283.574,36.1078,0,0.000885,0,0
0:2:40.083,284.806,36.2595,0,0.000885,0,0
0:2:40.795,286.216,36.4388,0,0.000885,0,0
0:2:41.491,287.622,36.6181,0,0.000885,0,0
0:2:42.186,289.206,36.8249,0,0.000885,0,0
0:2:42.890,290.496,36.9904,0,0.000885,0,0
0:2:43.592,291.434,37.1076,0,0.000885,0,0
0:2:44.283,292.902,37.2937,0,0.000885,0,0
0:2:44.980,294.486,37.4937,0,0.000885,0,0
0:2:45.679,295.482,37.6247,0,0.000885,0,0
0:2:46.386,296.421,37.7419,0,0.000885,0,0
0:2:47.092,296.421,37.7419,0,0.000885,0,0
0:2:47.783,297.711,37.9074,0,0.000885,0,0
0:2:48.485,299.468,38.128,0,0.000885,0,0
0:2:49.186,300.758,38.2935,0,0.000885,0,0
0:2:49.875,301.581,38.3969,0,0.000885,0,0
0:2:50.564,302.461,38.5072,0,0.000885,0,0
0:2:51.257,302.168,38.4727,0,0.000885,0,0
0:2:51.944,300.348,38.2383,0,0.000885,0,0
0:2:52.633,272.253,34.6668,0,0.000885,0,0
0:2:52.924,228.269,29.0614,0,0.000885,0,0