File: DataFile2021-06-30_045007.csv
Test ID:,Date Tested:,Time:,Test Type:,Diameter Avg. (mm):,Cyl. Corr. Factor:,Height (mm):,Age (days):,Weight (kN):,Break Type:,Ramp Rate (MPa/s):,Load at Break (kN):,Stress at Break (MPa):
12,6/30/2021,04:50,Cylinder,150,1,300,0,3.6,3,0.24,650.78,36.82
Sample Time,Load (kN),Stress (MPa),Long. Strain,Trans. Strain,Chan1 Deflection (mm),Chan2 Deflection (mm)
0:0:21.018,5.8672,0.330948,0,0.000885,0,0
0:0:21.718,16.4228,0.930792,0,0.000885,0,0
0:0:22.409,15.3063,0.868739,0,0.000885,0,0
0:0:23.101,14.8971,0.84116,0,0.000885,0,0
0:0:23.799,16.2449,0.917003,0,0.000885,0,0
0:0:24.491,19.2386,1.08937,0,0.000885,0,0
0:0:25.187,23.1663,1.31,0,0.000885,0,0
0:0:25.886,27.0986,1.53064,0,0.000885,0,0
0:0:26.588,31.0263,1.75816,0,0.000885,0,0
0:0:27.297,34.4292,1.95122,0,0.000885,0,0
0:0:28.001,37.5385,2.12359,0,0.000885,0,0
0:0:28.696,39.3534,2.22701,0,0.000885,0,0
0:0:29.397,41.8756,2.3718,0,0.000885,0,0
0:0:30.094,45.4519,2.57174,0,0.000885,0,0
0:0:30.790,48.9749,2.77169,0,0.000885,0,0
0:0:31.487,51.8485,2.93717,0,0.000885,0,0
0:0:32.198,55.1313,3.11643,0,0.000885,0,0
0:0:32.906,58.4763,3.30948,0,0.000885,0,0
0:0:33.604,61.3499,3.47496,0,0.000885,0,0
0:0:34.298,64.3391,3.64043,0,0.000885,0,0
0:0:34.998,66.9769,3.79212,0,0.000885,0,0
0:0:35.695,70.6155,3.99896,0,0.000885,0,0
0:0:36.393,73.7827,4.17822,0,0.000885,0,0
0:0:37.105,77.0654,4.36438,0,0.000885,0,0
0:0:37.810,79.7077,4.50917,0,0.000885,0,0
0:0:38.511,82.2298,4.65396,0,0.000885,0,0
0:0:39.206,85.5126,4.84012,0,0.000885,0,0
0:0:39.902,89.734,5.07454,0,0.000885,0,0
0:0:40.602,92.7855,5.25381,0,0.000885,0,0
0:0:41.297,95.3076,5.3917,0,0.000885,0,0
0:0:42.004,98.4169,5.57096,0,0.000885,0,0
0:0:42.713,101.348,5.73644,0,0.000885,0,0
0:0:43.413,105.396,5.96397,0,0.000885,0,0
0:0:44.114,107.74,6.09497,0,0.000885,0,0
0:0:44.810,110.027,6.22597,0,0.000885,0,0
0:0:45.505,113.487,6.41902,0,0.000885,0,0
0:0:46.206,116.89,6.61207,0,0.000885,0,0
0:0:46.916,119.235,6.74997,0,0.000885,0,0
0:0:47.624,123.46,6.98439,0,0.000885,0,0
0:0:48.321,126.392,7.14986,0,0.000885,0,0
0:0:49.017,128.798,7.28776,0,0.000885,0,0
0:0:49.716,132.081,7.47392,0,0.000885,0,0
0:0:50.410,135.19,7.65318,0,0.000885,0,0
0:0:51.108,137.886,7.80487,0,0.000885,0,0
0:0:51.818,142.405,8.05997,0,0.000885,0,0
0:0:52.524,145.452,8.23234,0,0.000885,0,0
0:0:53.226,148.032,8.37713,0,0.000885,0,0
0:0:53.921,150.381,8.50813,0,0.000885,0,0
0:0:54.618,153.37,8.6805,0,0.000885,0,0
0:0:55.318,157.654,8.92182,0,0.000885,0,0
0:0:56.012,160.292,9.0735,0,0.000885,0,0
0:0:56.719,162.992,9.22519,0,0.000885,0,0
0:0:57.428,166.568,9.42513,0,0.000885,0,0
0:0:58.128,169.557,9.5975,0,0.000885,0,0
0:0:58.828,172.845,9.78366,0,0.000885,0,0
0:0:59.523,176.07,9.96292,0,0.000885,0,0
0:1:0.219,178.707,10.1146,0,0.000885,0,0
0:1:0.920,181.759,10.287,0,0.000885,0,0
0:1:1.618,184.223,10.4249,0,0.000885,0,0
0:1:2.329,187.857,10.6317,0,0.000885,0,0
0:1:3.037,191.26,10.8248,0,0.000885,0,0
0:1:3.726,194.249,10.9902,0,0.000885,0,0
0:1:4.421,197.652,11.1833,0,0.000885,0,0
0:1:5.114,200.526,11.3488,0,0.000885,0,0
0:1:5.802,203.226,11.5005,0,0.000885,0,0
0:1:6.496,206.331,11.6728,0,0.000885,0,0
0:1:7.201,208.915,11.8245,0,0.000885,0,0
0:1:7.904,212.843,12.0451,0,0.000885,0,0
0:1:8.601,216.361,12.2451,0,0.000885,0,0
0:1:9.291,218.826,12.383,0,0.000885,0,0
0:1:9.986,222.58,12.5967,0,0.000885,0,0
0:1:10.682,224.751,12.7208,0,0.000885,0,0
0:1:11.385,228.034,12.907,0,0.000885,0,0
0:1:12.092,231.201,13.0862,0,0.000885,0,0
0:1:12.794,234.074,13.2448,0,0.000885,0,0
0:1:13.492,237.357,13.431,0,0.000885,0,0
0:1:14.195,240.644,13.6171,0,0.000885,0,0
0:1:14.890,243.224,13.7619,0,0.000885,0,0
0:1:15.585,245.982,13.9205,0,0.000885,0,0
0:1:16.290,249.91,14.1411,0,0.000885,0,0
0:1:16.996,252.668,14.2997,0,0.000885,0,0
0:1:17.697,255.773,14.4721,0,0.000885,0,0
0:1:18.392,259.118,14.6651,0,0.000885,0,0
0:1:19.091,261.876,14.8168,0,0.000885,0,0
0:1:19.791,265.101,15.003,0,0.000885,0,0
0:1:20.496,268.561,15.196,0,0.000885,0,0
0:1:21.185,271.377,15.3546,0,0.000885,0,0
0:1:21.885,274.308,15.5201,0,0.000885,0,0
0:1:22.587,277.533,15.7063,0,0.000885,0,0
0:1:23.293,280.821,15.8924,0,0.000885,0,0
0:1:23.997,284.277,16.0855,0,0.000885,0,0
0:1:24.686,287.271,16.2578,0,0.000885,0,0
0:1:25.375,289.615,16.3888,0,0.000885,0,0
0:1:26.069,292.608,16.5612,0,0.000885,0,0
0:1:26.774,295.891,16.7474,0,0.000885,0,0
0:1:27.477,298.529,16.8922,0,0.000885,0,0
0:1:28.170,302.11,17.099,0,0.000885,0,0
0:1:28.862,305.686,17.2989,0,0.000885,0,0
0:1:29.552,308.386,17.4506,0,0.000885,0,0
0:1:30.246,311.843,17.6437,0,0.000885,0,0
0:1:30.937,314.307,17.7885,0,0.000885,0,0
0:1:31.638,317.18,17.9471,0,0.000885,0,0
0:1:32.342,320.29,18.1263,0,0.000885,0,0
0:1:33.038,323.75,18.3194,0,0.000885,0,0
0:1:33.732,326.975,18.5055,0,0.000885,0,0
0:1:34.423,329.969,18.671,0,0.000885,0,0
0:1:35.113,332.9,18.8365,0,0.000885,0,0
0:1:35.810,336.477,19.0433,0,0.000885,0,0
0:1:36.505,338.883,19.1743,0,0.000885,0,0
0:1:37.208,341.521,19.326,0,0.000885,0,0
0:1:37.912,345.742,19.5673,0,0.000885,0,0
0:1:38.601,348.5,19.719,0,0.000885,0,0
0:1:39.294,351.725,19.9052,0,0.000885,0,0
0:1:39.987,354.425,20.0568,0,0.000885,0,0
0:1:40.696,357.299,20.2223,0,0.000885,0,0
0:1:41.392,360.288,20.3878,0,0.000885,0,0
0:1:42.097,363.575,20.574,0,0.000885,0,0
0:1:42.798,367.152,20.7739,0,0.000885,0,0
0:1:43.494,369.496,20.9118,0,0.000885,0,0
0:1:44.193,372.605,21.0842,0,0.000885,0,0
0:1:44.882,376.186,21.291,0,0.000885,0,0
0:1:45.585,378.882,21.4427,0,0.000885,0,0
0:1:46.281,381.697,21.6013,0,0.000885,0,0
0:1:46.987,384.807,21.7736,0,0.000885,0,0
0:1:47.683,388.619,21.9943,0,0.000885,0,0
0:1:48.385,391.786,22.1735,0,0.000885,0,0
0:1:49.079,394.66,22.3321,0,0.000885,0,0
0:1:49.770,397.711,22.5045,0,0.000885,0,0
0:1:50.462,400.642,22.67,0,0.000885,0,0
0:1:51.158,403.752,22.8492,0,0.000885,0,0
0:1:51.862,407.035,23.0354,0,0.000885,0,0
0:1:52.565,409.792,23.1871,0,0.000885,0,0
0:1:53.256,412.96,23.3663,0,0.000885,0,0
0:1:53.946,416.185,23.5525,0,0.000885,0,0
0:1:54.641,418.942,23.7042,0,0.000885,0,0
0:1:55.331,421.816,23.8696,0,0.000885,0,0
0:1:56.024,424.921,24.0489,0,0.000885,0,0
0:1:56.730,428.444,24.242,0,0.000885,0,0
0:1:57.431,431.669,24.4281,0,0.000885,0,0
0:1:58.126,434.133,24.566,0,0.000885,0,0
0:1:58.816,437.358,24.7522,0,0.000885,0,0
0:1:59.507,440.699,24.9383,0,0.000885,0,0
0:2:0.202,443.692,25.1107,0,0.000885,0,0
0:2:0.900,446.508,25.2693,0,0.000885,0,0
0:2:1.603,450.32,25.483,0,0.000885,0,0
0:2:2.305,453.487,25.6623,0,0.000885,0,0
0:2:3.001,456.361,25.8278,0,0.000885,0,0
0:2:3.695,459.056,25.9794,0,0.000885,0,0
0:2:4.397,461.757,26.1311,0,0.000885,0,0
0:2:5.095,464.982,26.3104,0,0.000885,0,0
0:2:5.801,468.442,26.5103,0,0.000885,0,0
0:2:6.491,471.845,26.7034,0,0.000885,0,0
0:2:7.198,474.776,26.8689,0,0.000885,0,0
0:2:7.900,477.414,27.0137,0,0.000885,0,0
0:2:8.589,480.172,27.1722,0,0.000885,0,0
0:2:9.300,483.984,27.386,0,0.000885,0,0
0:2:9.997,487.209,27.5721,0,0.000885,0,0
0:2:10.692,490.434,27.7514,0,0.000885,0,0
0:2:11.406,493.308,27.9169,0,0.000885,0,0
0:2:12.106,495.714,28.0548,0,0.000885,0,0
0:2:12.801,498.881,28.234,0,0.000885,0,0
0:2:13.493,502.516,28.434,0,0.000885,0,0
0:2:14.198,505.509,28.6063,0,0.000885,0,0
0:2:14.896,508.734,28.7856,0,0.000885,0,0
0:2:15.598,511.901,28.9649,0,0.000885,0,0
0:2:16.303,514.366,29.1097,0,0.000885,0,0
0:2:17.007,518.12,29.3165,0,0.000885,0,0
0:2:17.709,521.051,29.4889,0,0.000885,0,0
0:2:18.398,523.925,29.6475,0,0.000885,0,0
0:2:19.099,526.741,29.806,0,0.000885,0,0
0:2:19.792,530.375,30.0129,0,0.000885,0,0
0:2:20.489,533.075,30.1646,0,0.000885,0,0
0:2:21.192,536.358,30.3507,0,0.000885,0,0
0:2:21.898,539.645,30.5369,0,0.000885,0,0
0:2:22.600,542.634,30.7092,0,0.000885,0,0
0:2:23.294,545.508,30.8678,0,0.000885,0,0
0:2:23.994,548.501,31.0402,0,0.000885,0,0
0:2:24.685,551.433,31.2057,0,0.000885,0,0
0:2:25.387,554.6,31.3849,0,0.000885,0,0
0:2:26.082,557.825,31.5642,0,0.000885,0,0
0:2:26.785,560.934,31.7435,0,0.000885,0,0
0:2:27.486,564.043,31.9158,0,0.000885,0,0
0:2:28.186,566.681,32.0675,0,0.000885,0,0
0:2:28.887,568.91,32.1916,0,0.000885,0,0
0:2:29.582,572.135,32.3778,0,0.000885,0,0
0:2:30.273,576.592,32.626,0,0.000885,0,0
0:2:30.966,578.998,32.7639,0,0.000885,0,0
0:2:31.671,581.694,32.9156,0,0.000885,0,0
0:2:32.372,585.155,33.1155,0,0.000885,0,0
0:2:33.065,587.561,33.2465,0,0.000885,0,0
0:2:33.759,589.968,33.3844,0,0.000885,0,0
0:2:34.452,593.255,33.5706,0,0.000885,0,0
0:2:35.148,596.6,33.7636,0,0.000885,0,0
0:2:35.842,599.829,33.9429,0,0.000885,0,0
0:2:36.545,603.054,34.129,0,0.000885,0,0
0:2:37.251,606.284,34.3083,0,0.000885,0,0
0:2:37.954,609.687,34.5014,0,0.000885,0,0
0:2:38.648,612.449,34.6599,0,0.000885,0,0
0:2:39.347,614.735,34.7841,0,0.000885,0,0
0:2:40.041,617.262,34.9288,0,0.000885,0,0
0:2:40.735,618.08,34.9771,0,0.000885,0,0
0:2:41.444,619.668,35.0667,0,0.000885,0,0
0:2:42.147,620.901,35.1357,0,0.000885,0,0
0:2:42.842,617.729,34.9564,0,0.000885,0,0
0:2:43.536,613.094,34.6944,0,0.000885,0,0
0:2:44.226,608.926,34.46,0,0.000885,0,0
0:2:44.922,609.687,34.5014,0,0.000885,0,0
0:2:45.613,613.267,34.7013,0,0.000885,0,0
0:2:46.315,616.968,34.9151,0,0.000885,0,0
0:2:47.018,620.665,35.1219,0,0.000885,0,0
0:2:47.718,625.891,35.4184,0,0.000885,0,0
0:2:48.413,630.642,35.6873,0,0.000885,0,0
0:2:49.111,635.691,35.9699,0,0.000885,0,0
0:2:49.803,640.504,36.2457,0,0.000885,0,0
0:2:50.496,641.972,36.3285,0,0.000885,0,0
0:2:51.194,645.086,36.5077,0,0.000885,0,0
0:2:51.904,649.254,36.7422,0,0.000885,0,0
0:2:52.607,647.078,36.6181,0,0.000885,0,0
0:2:53.303,650.779,36.8249,0,0.000885,0,0
0:2:53.991,637.101,36.0527,0,0.000885,0,0
0:2:54.686,632.875,35.8114,0,0.000885,0,0
0:2:55.408,632.172,35.7769,0,0.000885,0,0
0:2:56.100,626.479,35.4528,0,0.000885,0,0
0:2:56.501,553.252,31.3091,0,0.000885,0,0