File: DataFile2021-06-29_055152.csv
Test ID:,Date Tested:,Time:,Test Type:,Diameter Avg. (mm):,Cyl. Corr. Factor:,Height (mm):,Age (days):,Weight (kN):,Break Type:,Ramp Rate (MPa/s):,Load at Break (kN):,Stress at Break (MPa):
12,6/29/2021,05:51,Cylinder,100,1,200,0,3.6,3,0.22,214.37,27.3
Sample Time,Load (kN),Stress (MPa),Long. Strain,Trans. Strain,Chan1 Deflection (mm),Chan2 Deflection (mm)
0:0:18.049,6.15634,0.786002,0,0.000885,0,0
0:0:18.544,16.1293,2.05464,0,0.000885,0,0
0:0:19.041,15.8935,2.02706,0,0.000885,0,0
0:0:19.536,14.5457,1.85469,0,0.000885,0,0
0:0:20.032,14.43,1.83401,0,0.000885,0,0
0:0:20.528,14.2521,1.81332,0,0.000885,0,0
0:0:21.023,13.8429,1.76506,0,0.000885,0,0
0:0:21.518,13.4915,1.71679,0,0.000885,0,0
0:0:22.014,13.4292,1.7099,0,0.000885,0,0
0:0:22.510,13.5493,1.72369,0,0.000885,0,0
0:0:23.005,14.8971,1.89606,0,0.000885,0,0
0:0:23.509,15.4264,1.96501,0,0.000885,0,0
0:0:24.015,15.6577,1.99258,0,0.000885,0,0
0:0:24.518,17.1257,2.17874,0,0.000885,0,0
0:0:25.018,18.0064,2.29595,0,0.000885,0,0
0:0:25.515,19.1185,2.43385,0,0.000885,0,0
0:0:26.012,20.3506,2.59243,0,0.000885,0,0
0:0:26.512,22.0543,2.80617,0,0.000885,0,0
0:0:27.010,22.7571,2.8958,0,0.000885,0,0
0:0:27.509,23.9314,3.04748,0,0.000885,0,0
0:0:28.005,25.3949,3.23364,0,0.000885,0,0
0:0:28.504,26.2178,3.33706,0,0.000885,0,0
0:0:29.010,26.5692,3.38533,0,0.000885,0,0
0:0:29.517,27.7436,3.53012,0,0.000885,0,0
0:0:30.021,28.562,3.63354,0,0.000885,0,0
0:0:30.520,29.6207,3.77143,0,0.000885,0,0
0:0:31.017,30.6749,3.90243,0,0.000885,0,0
0:0:31.514,31.6135,4.02654,0,0.000885,0,0
0:0:32.011,32.1384,4.09549,0,0.000885,0,0
0:0:32.508,33.4907,4.26096,0,0.000885,0,0
0:0:33.007,34.8385,4.43333,0,0.000885,0,0
0:0:33.503,35.2477,4.48849,0,0.000885,0,0
0:0:34.011,36.8313,4.68843,0,0.000885,0,0
0:0:34.516,37.8277,4.81944,0,0.000885,0,0
0:0:35.020,38.8285,4.94354,0,0.000885,0,0
0:0:35.517,39.4112,5.01938,0,0.000885,0,0
0:0:36.015,40.6434,5.17796,0,0.000885,0,0
0:0:36.511,41.1149,5.23312,0,0.000885,0,0
0:0:37.008,42.2892,5.38481,0,0.000885,0,0
0:0:37.505,43.517,5.54338,0,0.000885,0,0
0:0:38.002,44.5178,5.66749,0,0.000885,0,0
0:0:38.509,45.0427,5.73644,0,0.000885,0,0
0:0:39.015,46.5106,5.9226,0,0.000885,0,0
0:0:39.520,47.6849,6.07428,0,0.000885,0,0
0:0:40.016,48.0363,6.11565,0,0.000885,0,0
0:0:40.514,49.2062,6.26733,0,0.000885,0,0
0:0:41.013,50.3806,6.41212,0,0.000885,0,0
0:0:41.512,51.4348,6.55002,0,0.000885,0,0
0:0:42.008,52.3734,6.66723,0,0.000885,0,0
0:0:42.506,52.9605,6.74307,0,0.000885,0,0
0:0:43.004,53.7834,6.84649,0,0.000885,0,0
0:0:43.505,54.8377,6.98439,0,0.000885,0,0
0:0:44.012,56.0698,7.13607,0,0.000885,0,0
0:0:44.518,57.302,7.29465,0,0.000885,0,0
0:0:45.019,58.2984,7.42565,0,0.000885,0,0
0:0:45.518,59.1791,7.53597,0,0.000885,0,0
0:0:46.014,60.527,7.70834,0,0.000885,0,0
0:0:46.512,60.5848,7.71523,0,0.000885,0,0
0:0:47.010,61.8748,7.88071,0,0.000885,0,0
0:0:47.508,62.8712,8.00481,0,0.000885,0,0
0:0:48.005,64.0455,8.1565,0,0.000885,0,0
0:0:48.502,65.0419,8.2806,0,0.000885,0,0
0:0:49.008,65.807,8.37713,0,0.000885,0,0
0:0:49.513,66.8034,8.50813,0,0.000885,0,0
0:0:50.016,67.9777,8.65292,0,0.000885,0,0
0:0:50.514,69.032,8.79082,0,0.000885,0,0
0:0:51.013,70.2063,8.93561,0,0.000885,0,0
0:0:51.510,70.4376,8.97008,0,0.000885,0,0
0:0:52.006,71.9055,9.15624,0,0.000885,0,0
0:0:52.503,73.022,9.29413,0,0.000885,0,0
0:0:53.001,73.4312,9.34929,0,0.000885,0,0
0:0:53.496,74.6634,9.50787,0,0.000885,0,0
0:0:54.005,75.7176,9.63887,0,0.000885,0,0
0:0:54.510,76.8341,9.78366,0,0.000885,0,0
0:0:55.013,77.2434,9.83192,0,0.000885,0,0
0:0:55.512,78.5334,9.9974,0,0.000885,0,0
0:0:56.008,79.7077,10.1491,0,0.000885,0,0
0:0:56.508,80.7041,10.2732,0,0.000885,0,0
0:0:57.005,81.2912,10.349,0,0.000885,0,0
0:0:57.504,82.5812,10.5145,0,0.000885,0,0
0:0:58.001,83.5776,10.6386,0,0.000885,0,0
0:0:58.507,84.5162,10.7627,0,0.000885,0,0
0:0:59.013,85.6283,10.9006,0,0.000885,0,0
0:0:59.517,86.9805,11.073,0,0.000885,0,0
0:1:0.017,87.5054,11.1419,0,0.000885,0,0
0:1:0.516,88.3862,11.2522,0,0.000885,0,0
0:1:1.012,89.8541,11.4384,0,0.000885,0,0
0:1:1.511,90.7304,11.5556,0,0.000885,0,0
0:1:2.008,91.4955,11.6521,0,0.000885,0,0
0:1:2.506,92.4919,11.7762,0,0.000885,0,0
0:1:3.003,92.9589,11.8383,0,0.000885,0,0
0:1:3.510,94.4268,12.0245,0,0.000885,0,0
0:1:4.016,95.2498,12.1279,0,0.000885,0,0
0:1:4.522,96.2462,12.252,0,0.000885,0,0
0:1:5.021,97.0068,12.3485,0,0.000885,0,0
0:1:5.519,98.5326,12.5485,0,0.000885,0,0
0:1:6.016,99.4133,12.6588,0,0.000885,0,0
0:1:6.513,100.352,12.776,0,0.000885,0,0
0:1:7.011,100.939,12.8518,0,0.000885,0,0
0:1:7.510,102.403,13.038,0,0.000885,0,0
0:1:8.008,102.874,13.1,0,0.000885,0,0
0:1:8.510,104.044,13.2448,0,0.000885,0,0
0:1:9.017,105.338,13.4103,0,0.000885,0,0
0:1:9.520,106.277,13.5344,0,0.000885,0,0
0:1:10.020,106.922,13.6103,0,0.000885,0,0
0:1:10.520,108.034,13.755,0,0.000885,0,0
0:1:11.018,109.208,13.9067,0,0.000885,0,0
0:1:11.514,110.32,14.0446,0,0.000885,0,0
0:1:12.012,110.85,14.1136,0,0.000885,0,0
0:1:12.509,112.255,14.2928,0,0.000885,0,0
0:1:13.006,113.02,14.3894,0,0.000885,0,0
0:1:13.507,114.19,14.541,0,0.000885,0,0
0:1:14.015,114.84,14.6238,0,0.000885,0,0
0:1:14.518,116.188,14.7961,0,0.000885,0,0
0:1:15.021,117.126,14.9134,0,0.000885,0,0
0:1:15.520,118.123,15.0375,0,0.000885,0,0
0:1:16.018,119.119,15.1685,0,0.000885,0,0
0:1:16.516,120.115,15.2926,0,0.000885,0,0
0:1:17.013,120.76,15.3753,0,0.000885,0,0
0:1:17.512,121.819,15.5132,0,0.000885,0,0
0:1:18.007,122.637,15.6166,0,0.000885,0,0
0:1:18.507,123.692,15.7476,0,0.000885,0,0
0:1:19.013,124.63,15.8717,0,0.000885,0,0
0:1:19.519,125.747,16.0096,0,0.000885,0,0
0:1:20.023,126.628,16.1199,0,0.000885,0,0
0:1:20.521,127.682,16.2578,0,0.000885,0,0
0:1:21.019,129.15,16.444,0,0.000885,0,0
0:1:21.516,130.026,16.5543,0,0.000885,0,0
0:1:22.014,130.733,16.6439,0,0.000885,0,0
0:1:22.510,131.672,16.768,0,0.000885,0,0
0:1:23.007,132.548,16.8784,0,0.000885,0,0
0:1:23.505,133.607,17.0094,0,0.000885,0,0
0:1:24.010,134.545,17.1335,0,0.000885,0,0
0:1:24.515,135.306,17.23,0,0.000885,0,0
0:1:25.019,136.423,17.3679,0,0.000885,0,0
0:1:25.518,137.477,17.5058,0,0.000885,0,0
0:1:26.016,138.945,17.6919,0,0.000885,0,0
0:1:26.514,139.354,17.7402,0,0.000885,0,0
0:1:27.011,140.702,17.9126,0,0.000885,0,0
0:1:27.508,142.05,18.0849,0,0.000885,0,0
0:1:28.006,142.343,18.1263,0,0.000885,0,0
0:1:28.512,143.811,18.3125,0,0.000885,0,0
0:1:29.018,144.398,18.3883,0,0.000885,0,0
0:1:29.522,145.217,18.4917,0,0.000885,0,0
0:1:30.021,146.04,18.5952,0,0.000885,0,0
0:1:30.518,147.507,18.7813,0,0.000885,0,0
0:1:31.015,148.21,18.871,0,0.000885,0,0
0:1:31.512,149.442,19.0295,0,0.000885,0,0
0:1:32.010,150.261,19.133,0,0.000885,0,0
0:1:32.508,151.377,19.2708,0,0.000885,0,0
0:1:33.006,152.196,19.3812,0,0.000885,0,0
0:1:33.510,153.197,19.5053,0,0.000885,0,0
0:1:34.017,154.135,19.6225,0,0.000885,0,0
0:1:34.521,154.838,19.7121,0,0.000885,0,0
0:1:35.020,156.07,19.8707,0,0.000885,0,0
0:1:35.519,157.302,20.0293,0,0.000885,0,0
0:1:36.016,157.885,20.1051,0,0.000885,0,0
0:1:36.516,159.002,20.243,0,0.000885,0,0
0:1:37.013,160.114,20.3878,0,0.000885,0,0
0:1:37.510,161.23,20.5257,0,0.000885,0,0
0:1:38.008,162.227,20.6567,0,0.000885,0,0
0:1:38.506,162.929,20.7463,0,0.000885,0,0
0:1:39.012,164.633,20.9601,0,0.000885,0,0
0:1:39.518,164.927,21.0014,0,0.000885,0,0
0:1:40.021,165.923,21.1255,0,0.000885,0,0
0:1:40.520,166.568,21.2083,0,0.000885,0,0
0:1:41.019,167.8,21.3669,0,0.000885,0,0
0:1:41.515,168.97,21.5116,0,0.000885,0,0
0:1:42.013,169.851,21.6289,0,0.000885,0,0
0:1:42.509,170.847,21.753,0,0.000885,0,0
0:1:43.009,171.728,21.8633,0,0.000885,0,0
0:1:43.515,173.254,22.0563,0,0.000885,0,0
0:1:44.021,174.135,22.1735,0,0.000885,0,0
0:1:44.526,174.602,22.2287,0,0.000885,0,0
0:1:45.030,175.718,22.3735,0,0.000885,0,0
0:1:45.529,176.83,22.5183,0,0.000885,0,0
0:1:46.025,177.653,22.6217,0,0.000885,0,0
0:1:46.522,178.649,22.7458,0,0.000885,0,0
0:1:47.020,180.117,22.932,0,0.000885,0,0
0:1:47.516,180.469,22.9802,0,0.000885,0,0
0:1:48.014,181.35,23.0905,0,0.000885,0,0
0:1:48.519,182.755,23.2698,0,0.000885,0,0
0:1:49.027,184.223,23.456,0,0.000885,0,0
0:1:49.529,184.397,23.4766,0,0.000885,0,0
0:1:50.027,185.629,23.6352,0,0.000885,0,0
0:1:50.526,186.861,23.7938,0,0.000885,0,0
0:1:51.022,187.622,23.8903,0,0.000885,0,0
0:1:51.520,188.387,23.9869,0,0.000885,0,0
0:1:52.017,189.677,24.1523,0,0.000885,0,0
0:1:52.517,190.264,24.2282,0,0.000885,0,0
0:1:53.013,191.14,24.3385,0,0.000885,0,0
0:1:53.515,192.257,24.4764,0,0.000885,0,0
0:1:54.020,192.786,24.5453,0,0.000885,0,0
0:1:54.521,194.543,24.7729,0,0.000885,0,0
0:1:55.021,195.597,24.9039,0,0.000885,0,0
0:1:55.516,196.127,24.9728,0,0.000885,0,0
0:1:56.010,197.243,25.1107,0,0.000885,0,0
0:1:56.512,198.533,25.2762,0,0.000885,0,0
0:1:57.009,199.351,25.3796,0,0.000885,0,0
0:1:57.512,200.059,25.4692,0,0.000885,0,0
0:1:58.008,201.522,25.6554,0,0.000885,0,0
0:1:58.499,202.461,25.7795,0,0.000885,0,0
0:1:59.001,203.106,25.8622,0,0.000885,0,0
0:1:59.504,204.164,25.9932,0,0.000885,0,0
0:2:0.004,204.28,26.007,0,0.000885,0,0
0:2:0.510,205.454,26.1587,0,0.000885,0,0
0:2:1.013,206.744,26.3242,0,0.000885,0,0
0:2:1.508,207.799,26.4552,0,0.000885,0,0
0:2:1.999,208.208,26.5103,0,0.000885,0,0
0:2:2.503,209.382,26.662,0,0.000885,0,0
0:2:3.009,210.557,26.8068,0,0.000885,0,0
0:2:3.513,211.081,26.8758,0,0.000885,0,0
0:2:4.016,212.492,27.055,0,0.000885,0,0
0:2:4.515,212.607,27.0688,0,0.000885,0,0
0:2:5.009,213.546,27.1929,0,0.000885,0,0
0:2:5.512,214.017,27.2481,0,0.000885,0,0
0:2:6.014,214.191,27.2688,0,0.000885,0,0
0:2:6.510,214.484,27.3101,0,0.000885,0,0
0:2:6.998,214.075,27.255,0,0.000885,0,0
0:2:7.493,214.191,27.2688,0,0.000885,0,0
0:2:7.995,213.137,27.1378,0,0.000885,0,0
0:2:8.495,211.669,26.9516,0,0.000885,0,0
0:2:8.996,207.914,26.4759,0,0.000885,0,0
0:2:9.495,202.167,25.7381,0,0.000885,0,0
0:2:9.999,193.956,24.697,0,0.000885,0,0
0:2:10.506,187.328,23.849,0,0.000885,0,0
0:2:11.013,178.414,22.7182,0,0.000885,0,0
0:2:11.511,168.619,21.4703,0,0.000885,0,0
0:2:12.006,160.821,20.4774,0,0.000885,0,0
0:2:12.416,151.844,19.3329,0,0.000885,0,0