File: DataFile2021-07-17_055727.csv
Test ID:,Date Tested:,Time:,Test Type:,Diameter Avg. (mm):,Cyl. Corr. Factor:,Height (mm):,Age (days):,Weight (kN):,Break Type:,Ramp Rate (MPa/s):,Load at Break (kN):,Stress at Break (MPa):
12,7/17/2021,05:57,Cylinder,100,1,200,0,3.6,3,0.2,330.2,42.04
Sample Time,Load (kN),Stress (MPa),Long. Strain,Trans. Strain,Chan1 Deflection (mm),Chan2 Deflection (mm)
0:0:6.701,5.8672,0.744634,0,0.000885,0,0
0:0:7.593,7.27284,0.923897,0,0.000885,0,0
0:0:8.488,8.26924,1.0549,0,0.000885,0,0
0:0:9.388,10.0886,1.28242,0,0.000885,0,0
0:0:10.280,11.2629,1.43411,0,0.000885,0,0
0:0:11.181,13.3714,1.70301,0,0.000885,0,0
0:0:12.081,15.7778,2.00637,0,0.000885,0,0
0:0:12.989,17.0678,2.17185,0,0.000885,0,0
0:0:13.889,18.6514,2.3718,0,0.000885,0,0
0:0:14.784,21.4093,2.72343,0,0.000885,0,0
0:0:15.682,22.7571,2.8958,0,0.000885,0,0
0:0:16.588,25.3371,3.22675,0,0.000885,0,0
0:0:17.491,26.9206,3.42669,0,0.000885,0,0
0:0:18.402,28.74,3.66112,0,0.000885,0,0
0:0:19.298,30.0299,3.82659,0,0.000885,0,0
0:0:20.196,31.4934,4.01275,0,0.000885,0,0
0:0:21.089,33.3127,4.24028,0,0.000885,0,0
0:0:21.982,34.8963,4.44022,0,0.000885,0,0
0:0:22.894,37.245,4.74359,0,0.000885,0,0
0:0:23.803,39.0598,4.97112,0,0.000885,0,0
0:0:24.696,40.5277,5.15728,0,0.000885,0,0
0:0:25.590,42.3471,5.3917,0,0.000885,0,0
0:0:26.487,44.1041,5.61233,0,0.000885,0,0
0:0:27.395,45.5142,5.7916,0,0.000885,0,0
0:0:28.302,47.3914,6.03291,0,0.000885,0,0
0:0:29.197,49.7934,6.34318,0,0.000885,0,0
0:0:30.095,51.377,6.54312,0,0.000885,0,0
0:0:30.992,53.0184,6.74997,0,0.000885,0,0
0:0:31.885,54.0192,6.88097,0,0.000885,0,0
0:0:32.797,56.4791,7.19123,0,0.000885,0,0
0:0:33.703,58.3562,7.43255,0,0.000885,0,0
0:0:34.599,59.882,7.6256,0,0.000885,0,0
0:0:35.494,61.937,7.8876,0,0.000885,0,0
0:0:36.386,63.5784,8.09445,0,0.000885,0,0
0:0:37.289,65.6291,8.35645,0,0.000885,0,0
0:0:38.199,67.2705,8.56329,0,0.000885,0,0
0:0:39.103,68.5026,8.72187,0,0.000885,0,0
0:0:39.995,70.6733,8.99766,0,0.000885,0,0
0:0:40.894,72.6083,9.24587,0,0.000885,0,0
0:0:41.789,74.1919,9.44582,0,0.000885,0,0
0:0:42.693,75.7755,9.64577,0,0.000885,0,0
0:0:43.603,77.5948,9.88019,0,0.000885,0,0
0:0:44.499,79.4719,10.1215,0,0.000885,0,0
0:0:45.395,81.1711,10.3352,0,0.000885,0,0
0:0:46.287,82.9326,10.5559,0,0.000885,0,0
0:0:47.190,84.6897,10.7834,0,0.000885,0,0
0:0:48.100,86.8026,11.0523,0,0.000885,0,0
0:0:49.003,88.3862,11.2522,0,0.000885,0,0
0:0:49.897,90.0276,11.466,0,0.000885,0,0
0:0:50.790,92.1405,11.7349,0,0.000885,0,0
0:0:51.687,93.2525,11.8728,0,0.000885,0,0
0:0:52.594,94.9562,12.0934,0,0.000885,0,0
0:0:53.503,97.0646,12.3623,0,0.000885,0,0
0:0:54.397,99.2932,12.645,0,0.000885,0,0
0:0:55.294,100.352,12.776,0,0.000885,0,0
0:0:56.191,101.993,12.9828,0,0.000885,0,0
0:0:57.085,103.928,13.231,0,0.000885,0,0
0:0:57.998,106.215,13.5206,0,0.000885,0,0
0:0:58.902,107.976,13.7481,0,0.000885,0,0
0:0:59.798,109.618,13.955,0,0.000885,0,0
0:1:0.694,111.259,14.1687,0,0.000885,0,0
0:1:1.587,113.194,14.41,0,0.000885,0,0
0:1:2.499,114.546,14.5824,0,0.000885,0,0
0:1:3.408,116.361,14.8168,0,0.000885,0,0
0:1:4.304,118.065,15.0306,0,0.000885,0,0
0:1:5.195,119.648,15.2305,0,0.000885,0,0
0:1:6.093,121.583,15.4787,0,0.000885,0,0
0:1:6.990,123.46,15.72,0,0.000885,0,0
0:1:7.902,125.511,15.982,0,0.000885,0,0
0:1:8.805,126.743,16.1406,0,0.000885,0,0
0:1:9.701,128.914,16.4164,0,0.000885,0,0
0:1:10.597,130.791,16.6508,0,0.000885,0,0
0:1:11.491,132.548,16.8784,0,0.000885,0,0
0:1:12.394,133.9,17.0507,0,0.000885,0,0
0:1:13.305,135.835,17.2921,0,0.000885,0,0
0:1:14.207,137.592,17.5196,0,0.000885,0,0
0:1:15.099,139.763,17.7954,0,0.000885,0,0
0:1:15.995,141.289,17.9884,0,0.000885,0,0
0:1:16.894,143.224,18.2366,0,0.000885,0,0
0:1:17.800,144.572,18.409,0,0.000885,0,0
0:1:18.709,146.155,18.6089,0,0.000885,0,0
0:1:19.604,148.62,18.9261,0,0.000885,0,0
0:1:20.502,150.323,19.1398,0,0.000885,0,0
0:1:21.398,152.022,19.3536,0,0.000885,0,0
0:1:22.304,153.9,19.5949,0,0.000885,0,0
0:1:23.212,155.425,19.788,0,0.000885,0,0
0:1:24.109,157.009,19.9879,0,0.000885,0,0
0:1:25.009,159.237,20.2775,0,0.000885,0,0
0:1:25.905,160.821,20.4774,0,0.000885,0,0
0:1:26.798,162.347,20.6705,0,0.000885,0,0
0:1:27.710,164.219,20.9118,0,0.000885,0,0
0:1:28.614,166.039,21.1393,0,0.000885,0,0
0:1:29.512,167.8,21.3669,0,0.000885,0,0
0:1:30.407,169.677,21.6013,0,0.000885,0,0
0:1:31.301,171.199,21.8012,0,0.000885,0,0
0:1:32.200,172.782,22.0012,0,0.000885,0,0
0:1:33.113,175.131,22.2976,0,0.000885,0,0
0:1:34.015,177.244,22.5665,0,0.000885,0,0
0:1:34.907,178.24,22.6906,0,0.000885,0,0
0:1:35.806,179.939,22.9113,0,0.000885,0,0
0:1:36.703,181.523,23.1112,0,0.000885,0,0
0:1:37.605,183.285,23.3388,0,0.000885,0,0
0:1:38.514,185.807,23.6559,0,0.000885,0,0
0:1:39.413,187.622,23.8903,0,0.000885,0,0
0:1:40.311,188.854,24.0489,0,0.000885,0,0
0:1:41.205,190.615,24.2695,0,0.000885,0,0
0:1:42.108,192.199,24.4695,0,0.000885,0,0
0:1:43.013,194.134,24.7177,0,0.000885,0,0
0:1:43.908,196.069,24.9659,0,0.000885,0,0
0:1:44.796,197.888,25.1934,0,0.000885,0,0
0:1:45.683,199.939,25.4554,0,0.000885,0,0
0:1:46.572,201.286,25.6278,0,0.000885,0,0
0:1:47.471,202.87,25.8278,0,0.000885,0,0
0:1:48.374,204.222,26.0001,0,0.000885,0,0
0:1:49.263,206.624,26.3104,0,0.000885,0,0
0:1:50.154,208.092,26.4966,0,0.000885,0,0
0:1:51.041,210.027,26.7448,0,0.000885,0,0
0:1:51.928,212.14,27.0137,0,0.000885,0,0
0:1:52.835,213.724,27.2136,0,0.000885,0,0
0:1:53.738,214.894,27.3584,0,0.000885,0,0
0:1:54.626,217.242,27.6618,0,0.000885,0,0
0:1:55.513,218.768,27.8548,0,0.000885,0,0
0:1:56.404,220.645,28.0961,0,0.000885,0,0
0:1:57.308,221.993,28.2616,0,0.000885,0,0
0:1:58.209,224.044,28.5236,0,0.000885,0,0
0:1:59.098,226.156,28.7925,0,0.000885,0,0
0:1:59.990,227.976,29.0269,0,0.000885,0,0
0:2:0.887,229.502,29.22,0,0.000885,0,0
0:2:1.796,231.494,29.4751,0,0.000885,0,0
0:2:2.700,233.723,29.7578,0,0.000885,0,0
0:2:3.597,234.484,29.8543,0,0.000885,0,0
0:2:4.490,236.125,30.068,0,0.000885,0,0
0:2:5.385,238.002,30.3025,0,0.000885,0,0
0:2:6.274,240.057,30.5645,0,0.000885,0,0
0:2:7.187,241.521,30.7506,0,0.000885,0,0
0:2:8.093,243.104,30.9506,0,0.000885,0,0
0:2:8.986,245.337,31.2401,0,0.000885,0,0
0:2:9.873,247.272,31.4815,0,0.000885,0,0
0:2:10.761,248.856,31.6883,0,0.000885,0,0
0:2:11.653,250.849,31.9365,0,0.000885,0,0
0:2:12.553,252.784,32.1847,0,0.000885,0,0
0:2:13.454,254.131,32.3571,0,0.000885,0,0
0:2:14.342,255.599,32.5433,0,0.000885,0,0
0:2:15.233,257.712,32.8121,0,0.000885,0,0
0:2:16.122,259.296,33.0121,0,0.000885,0,0
0:2:17.010,260.879,33.2189,0,0.000885,0,0
0:2:17.915,262.814,33.4603,0,0.000885,0,0
0:2:18.812,264.278,33.6464,0,0.000885,0,0
0:2:19.704,266.333,33.9084,0,0.000885,0,0
0:2:20.593,267.916,34.1153,0,0.000885,0,0
0:2:21.488,269.322,34.2945,0,0.000885,0,0
0:2:22.396,271.319,34.5427,0,0.000885,0,0
0:2:23.296,272.961,34.7565,0,0.000885,0,0
0:2:24.195,274.776,34.984,0,0.000885,0,0
0:2:25.079,276.831,35.246,0,0.000885,0,0
0:2:25.966,279.001,35.5218,0,0.000885,0,0
0:2:26.862,280.407,35.7011,0,0.000885,0,0
0:2:27.767,282.462,35.9631,0,0.000885,0,0
0:2:28.664,283.926,36.1492,0,0.000885,0,0
0:2:29.551,285.687,36.3767,0,0.000885,0,0
0:2:30.441,287.213,36.5698,0,0.000885,0,0
0:2:31.332,288.912,36.7835,0,0.000885,0,0
0:2:32.229,291.318,37.0938,0,0.000885,0,0
0:2:33.131,292.902,37.2937,0,0.000885,0,0
0:2:34.023,294.308,37.473,0,0.000885,0,0
0:2:34.913,295.891,37.673,0,0.000885,0,0
0:2:35.799,297.59,37.8936,0,0.000885,0,0
0:2:36.697,299.703,38.1625,0,0.000885,0,0
0:2:37.602,301.229,38.3555,0,0.000885,0,0
0:2:38.503,302.813,38.5555,0,0.000885,0,0
0:2:39.392,304.863,38.8175,0,0.000885,0,0
0:2:40.300,307.154,39.1071,0,0.000885,0,0
0:2:41.200,308.151,39.2381,0,0.000885,0,0
0:2:42.101,309.792,39.4449,0,0.000885,0,0
0:2:43.002,311.611,39.6724,0,0.000885,0,0
0:2:43.900,313.017,39.8517,0,0.000885,0,0
0:2:44.801,315.188,40.1344,0,0.000885,0,0
0:2:45.698,316.949,40.355,0,0.000885,0,0
0:2:46.582,318.413,40.5412,0,0.000885,0,0
0:2:47.487,320.641,40.8239,0,0.000885,0,0
0:2:48.398,322.051,41.0031,0,0.000885,0,0
0:2:49.285,323.048,41.1341,0,0.000885,0,0
0:2:50.191,325.098,41.3961,0,0.000885,0,0
0:2:51.090,326.682,41.5961,0,0.000885,0,0
0:2:51.990,326.566,41.5823,0,0.000885,0,0
0:2:52.893,322.638,41.079,0,0.000885,0,0
0:2:53.796,322.225,41.0238,0,0.000885,0,0
0:2:54.700,321.993,40.9962,0,0.000885,0,0
0:2:55.598,322.696,41.0859,0,0.000885,0,0
0:2:56.493,323.808,41.2306,0,0.000885,0,0
0:2:57.398,324.453,41.3134,0,0.000885,0,0
0:2:58.290,325.512,41.4444,0,0.000885,0,0
0:2:59.188,326.682,41.5961,0,0.000885,0,0
0:3:0.075,327.153,41.6512,0,0.000885,0,0
0:3:0.960,327.327,41.6788,0,0.000885,0,0
0:3:1.855,328.853,41.8719,0,0.000885,0,0
0:3:2.760,329.849,41.996,0,0.000885,0,0
0:3:3.654,329.849,41.996,0,0.000885,0,0
0:3:4.539,330.143,42.0373,0,0.000885,0,0
0:3:5.428,328.853,41.8719,0,0.000885,0,0
0:3:6.317,327.033,41.6374,0,0.000885,0,0
0:3:7.210,326.095,41.5202,0,0.000885,0,0
0:3:8.110,324.747,41.3479,0,0.000885,0,0
0:3:9.001,324.222,41.2789,0,0.000885,0,0
0:3:9.898,322.812,41.0996,0,0.000885,0,0
0:3:10.791,321.055,40.879,0,0.000885,0,0
0:3:11.685,318.591,40.5619,0,0.000885,0,0
0:3:12.586,317.594,40.4378,0,0.000885,0,0
0:3:13.479,312.608,39.8034,0,0.000885,0,0
0:3:14.363,311.14,39.6173,0,0.000885,0,0
0:3:15.250,312.078,39.7345,0,0.000885,0,0
0:3:16.140,312.843,39.831,0,0.000885,0,0
0:3:17.037,312.901,39.8379,0,0.000885,0,0
0:3:17.937,313.955,39.9758,0,0.000885,0,0
0:3:18.825,315.072,40.1137,0,0.000885,0,0
0:3:19.713,315.481,40.1689,0,0.000885,0,0
0:3:20.595,316.656,40.3205,0,0.000885,0,0
0:3:21.501,318.239,40.5205,0,0.000885,0,0
0:3:22.403,318.648,40.5688,0,0.000885,0,0
0:3:23.302,320.232,40.7756,0,0.000885,0,0
0:3:24.196,321.758,40.9686,0,0.000885,0,0
0:3:25.100,322.109,41.01,0,0.000885,0,0
0:3:25.999,320.468,40.8032,0,0.000885,0,0
0:3:26.908,313.662,39.9344,0,0.000885,0,0
0:3:27.808,308.796,39.3139,0,0.000885,0,0
0:3:28.702,302.461,38.5072,0,0.000885,0,0
0:3:29.600,273.837,34.8668,0,0.000885,0,0
0:3:29.658,273.837,34.8668,0,0.000885,0,0