File: DataFile2021-06-30_064949.csv
Test ID:,Date Tested:,Time:,Test Type:,Diameter Avg. (mm):,Cyl. Corr. Factor:,Height (mm):,Age (days):,Weight (kN):,Break Type:,Ramp Rate (MPa/s):,Load at Break (kN):,Stress at Break (MPa):
12,6/30/2021,06:49,Cylinder,100,1,200,0,3.6,3,0.25,1104.4,140.62
Sample Time,Load (kN),Stress (MPa),Long. Strain,Trans. Strain,Chan1 Deflection (mm),Chan2 Deflection (mm)
0:0:19.810,5.92503,0.751529,0,0.000885,0,0
0:0:22.195,9.44357,1.19969,0,0.000885,0,0
0:0:24.577,13.7228,1.74437,0,0.000885,0,0
0:0:26.991,19.2386,2.44764,0,0.000885,0,0
0:0:29.381,24.6921,3.14401,0,0.000885,0,0
0:0:31.795,28.6821,3.65422,0,0.000885,0,0
0:0:34.184,33.8999,4.31612,0,0.000885,0,0
0:0:36.597,37.89,4.82633,0,0.000885,0,0
0:0:38.983,42.5784,5.41928,0,0.000885,0,0
0:0:41.394,47.9162,6.10186,0,0.000885,0,0
0:0:43.785,51.9641,6.61897,0,0.000885,0,0
0:0:46.190,56.5369,7.19813,0,0.000885,0,0
0:0:48.585,61.937,7.8876,0,0.000885,0,0
0:0:50.993,66.3319,8.44608,0,0.000885,0,0
0:0:53.383,70.789,9.01145,0,0.000885,0,0
0:0:55.787,76.069,9.68713,0,0.000885,0,0
0:0:58.186,80.5262,10.2525,0,0.000885,0,0
0:1:0.592,85.0411,10.8248,0,0.000885,0,0
0:1:2.995,89.6761,11.4177,0,0.000885,0,0
0:1:5.385,94.8361,12.0727,0,0.000885,0,0
0:1:7.795,99.5868,12.6795,0,0.000885,0,0
0:1:10.191,103.813,13.2172,0,0.000885,0,0
0:1:12.597,108.563,13.824,0,0.000885,0,0
0:1:14.985,113.608,14.4652,0,0.000885,0,0
0:1:17.399,118.416,15.0788,0,0.000885,0,0
0:1:19.784,122.58,15.6097,0,0.000885,0,0
0:1:22.200,127.508,16.2372,0,0.000885,0,0
0:1:24.586,132.61,16.8853,0,0.000885,0,0
0:1:26.996,136.654,17.4024,0,0.000885,0,0
0:1:29.386,141.698,18.0436,0,0.000885,0,0
0:1:31.799,146.569,18.6641,0,0.000885,0,0
0:1:34.183,151.32,19.264,0,0.000885,0,0
0:1:36.602,155.657,19.8224,0,0.000885,0,0
0:1:38.991,160.821,20.4774,0,0.000885,0,0
0:1:41.402,165.336,21.0497,0,0.000885,0,0
0:1:43.788,170.087,21.6564,0,0.000885,0,0
0:1:46.197,174.895,22.2701,0,0.000885,0,0
0:1:48.587,179.237,22.8216,0,0.000885,0,0
0:1:50.999,183.987,23.4284,0,0.000885,0,0
0:1:53.398,188.618,24.0144,0,0.000885,0,0
0:1:55.796,193.782,24.6763,0,0.000885,0,0
0:1:58.186,197.83,25.1865,0,0.000885,0,0
0:2:0.594,203.164,25.8691,0,0.000885,0,0
0:2:2.984,207.977,26.4828,0,0.000885,0,0
0:2:5.389,212.256,27.0274,0,0.000885,0,0
0:2:7.785,217.122,27.648,0,0.000885,0,0
0:2:10.186,222.287,28.303,0,0.000885,0,0
0:2:12.584,226.744,28.8683,0,0.000885,0,0
0:2:14.984,230.965,29.4061,0,0.000885,0,0
0:2:17.388,236.125,30.068,0,0.000885,0,0
0:2:19.788,240.466,30.6196,0,0.000885,0,0
0:2:22.192,245.804,31.2953,0,0.000885,0,0
0:2:24.589,250.026,31.8331,0,0.000885,0,0
0:2:26.997,255.364,32.5157,0,0.000885,0,0
0:2:29.386,259.821,33.081,0,0.000885,0,0
0:2:31.790,264.629,33.6947,0,0.000885,0,0
0:2:34.190,268.561,34.1911,0,0.000885,0,0
0:2:36.595,273.957,34.8806,0,0.000885,0,0
0:2:38.993,278.299,35.4322,0,0.000885,0,0
0:2:41.396,283.049,36.0389,0,0.000885,0,0
0:2:43.789,287.386,36.5905,0,0.000885,0,0
0:2:46.199,292.315,37.2179,0,0.000885,0,0
0:2:48.594,296.888,37.804,0,0.000885,0,0
0:2:51.001,301.932,38.4452,0,0.000885,0,0
0:2:53.392,306.509,39.0243,0,0.000885,0,0
0:2:55.787,310.966,39.5966,0,0.000885,0,0
0:2:58.192,316.304,40.2723,0,0.000885,0,0
0:3:0.596,320.699,40.8308,0,0.000885,0,0
0:3:2.983,325.218,41.4099,0,0.000885,0,0
0:3:5.390,330.085,42.0304,0,0.000885,0,0
0:3:7.789,334.893,42.6372,0,0.000885,0,0
0:3:10.185,339.822,43.2646,0,0.000885,0,0
0:3:12.598,344.043,43.8024,0,0.000885,0,0
0:3:14.989,349.381,44.485,0,0.000885,0,0
0:3:17.392,353.251,44.9745,0,0.000885,0,0
0:3:19.797,358.647,45.664,0,0.000885,0,0
0:3:22.195,363.162,46.2362,0,0.000885,0,0
0:3:24.595,368.206,46.8843,0,0.000885,0,0
0:3:26.996,372.196,47.3877,0,0.000885,0,0
0:3:29.397,377.062,48.0082,0,0.000885,0,0
0:3:31.801,381.755,48.608,0,0.000885,0,0
0:3:34.200,386.448,49.201,0,0.000885,0,0
0:3:36.602,391.377,49.8284,0,0.000885,0,0
0:3:38.997,396.185,50.442,0,0.000885,0,0
0:3:41.400,400.994,51.0557,0,0.000885,0,0
0:3:43.801,405.745,51.6624,0,0.000885,0,0
0:3:46.202,410.731,52.2967,0,0.000885,0,0
0:3:48.596,414.543,52.7794,0,0.000885,0,0
0:3:51.002,419.703,53.4413,0,0.000885,0,0
0:3:53.399,424.632,54.0687,0,0.000885,0,0
0:3:55.803,429.147,54.641,0,0.000885,0,0
0:3:58.191,433.31,55.1718,0,0.000885,0,0
0:4:0.600,438.528,55.8337,0,0.000885,0,0
0:4:2.997,443.279,56.4405,0,0.000885,0,0
0:4:5.399,448.385,57.0886,0,0.000885,0,0
0:4:7.799,452.607,57.6264,0,0.000885,0,0
0:4:10.201,457.473,58.2469,0,0.000885,0,0
0:4:12.601,462.753,58.9226,0,0.000885,0,0
0:4:15.006,466.974,59.4604,0,0.000885,0,0
0:4:17.401,471.374,60.0189,0,0.000885,0,0
0:4:19.802,476.124,60.6187,0,0.000885,0,0
0:4:22.202,480.759,61.2117,0,0.000885,0,0
0:4:24.601,486.035,61.8873,0,0.000885,0,0
0:4:27.005,490.141,62.4044,0,0.000885,0,0
0:4:29.391,494.954,63.0181,0,0.000885,0,0
0:4:31.799,500.229,63.6938,0,0.000885,0,0
0:4:34.207,504.161,64.1902,0,0.000885,0,0
0:4:36.610,509.321,64.8521,0,0.000885,0,0
0:4:39.001,513.894,65.4312,0,0.000885,0,0
0:4:41.407,518.471,66.0104,0,0.000885,0,0
0:4:43.800,523.222,66.6171,0,0.000885,0,0
0:4:46.212,528.146,67.2446,0,0.000885,0,0
0:4:48.597,533.075,67.872,0,0.000885,0,0
0:4:51.004,537.941,68.4925,0,0.000885,0,0
0:4:53.401,542.047,69.0165,0,0.000885,0,0
0:4:55.801,547.033,69.6508,0,0.000885,0,0
0:4:58.200,551.726,70.2507,0,0.000885,0,0
0:5:0.606,556.535,70.8574,0,0.000885,0,0
0:5:3.005,561.108,71.4435,0,0.000885,0,0
0:5:5.403,566.152,72.0847,0,0.000885,0,0
0:5:7.809,570.551,72.6432,0,0.000885,0,0
0:5:10.209,575.48,73.2706,0,0.000885,0,0
0:5:12.602,579.759,73.8153,0,0.000885,0,0
0:5:15.002,585.506,74.5461,0,0.000885,0,0
0:5:17.399,589.438,75.0494,0,0.000885,0,0
0:5:19.797,594.136,75.6493,0,0.000885,0,0
0:5:22.199,598.183,76.1664,0,0.000885,0,0
0:5:24.600,603.117,76.7938,0,0.000885,0,0
0:5:27.011,608.575,77.4833,0,0.000885,0,0
0:5:29.400,613.036,78.0555,0,0.000885,0,0
0:5:31.808,617.965,78.683,0,0.000885,0,0
0:5:34.198,622.484,79.2552,0,0.000885,0,0
0:5:36.615,627.417,79.8827,0,0.000885,0,0
0:5:39.005,631.821,80.448,0,0.000885,0,0
0:5:41.416,636.22,81.0065,0,0.000885,0,0
0:5:43.814,641.153,81.6339,0,0.000885,0,0
0:5:46.221,646.024,82.2545,0,0.000885,0,0
0:5:48.611,651.189,82.9095,0,0.000885,0,0
0:5:51.021,655.414,83.4472,0,0.000885,0,0
0:5:53.407,660.169,84.054,0,0.000885,0,0
0:5:55.822,664.751,84.64,0,0.000885,0,0
0:5:58.215,669.795,85.2813,0,0.000885,0,0
0:6:0.610,674.141,85.8328,0,0.000885,0,0
0:6:3.008,679.306,86.4947,0,0.000885,0,0
0:6:5.397,683.709,87.0532,0,0.000885,0,0
0:6:7.813,688.932,87.7151,0,0.000885,0,0
0:6:10.207,692.806,88.2115,0,0.000885,0,0
0:6:12.609,697.855,88.8527,0,0.000885,0,0
0:6:15.004,702.316,89.425,0,0.000885,0,0
0:6:17.411,707.423,90.0731,0,0.000885,0,0
0:6:19.814,711.769,90.6247,0,0.000885,0,0
0:6:22.221,716.818,91.2659,0,0.000885,0,0
0:6:24.611,721.395,91.852,0,0.000885,0,0
0:6:27.016,725.914,92.4242,0,0.000885,0,0
0:6:29.400,730.376,92.9965,0,0.000885,0,0
0:6:31.816,735.367,93.6308,0,0.000885,0,0
0:6:34.202,740.237,94.2513,0,0.000885,0,0
0:6:36.612,745.108,94.8719,0,0.000885,0,0
0:6:39.015,749.218,95.3959,0,0.000885,0,0
0:6:41.416,754.209,96.0302,0,0.000885,0,0
0:6:43.803,759.138,96.6576,0,0.000885,0,0
0:6:46.214,763.6,97.223,0,0.000885,0,0
0:6:48.598,768.355,97.8297,0,0.000885,0,0
0:6:51.016,772.874,98.402,0,0.000885,0,0
0:6:53.406,777.981,99.057,0,0.000885,0,0
0:6:55.823,782.558,99.6361,0,0.000885,0,0
0:6:58.213,787.255,100.236,0,0.000885,0,0
0:7:0.617,791.717,100.801,0,0.000885,0,0
0:7:3.007,797.059,101.484,0,0.000885,0,0
0:7:5.415,801.521,102.049,0,0.000885,0,0
0:7:7.820,806.213,102.649,0,0.000885,0,0
0:7:10.205,811.026,103.263,0,0.000885,0,0
0:7:12.621,815.902,103.883,0,0.000885,0,0
0:7:15.012,820.421,104.462,0,0.000885,0,0
0:7:17.417,824.82,105.021,0,0.000885,0,0
0:7:19.805,829.46,105.607,0,0.000885,0,0
0:7:22.224,834.624,106.269,0,0.000885,0,0
0:7:24.611,839.495,106.889,0,0.000885,0,0
0:7:27.020,843.725,107.427,0,0.000885,0,0
0:7:29.410,848.36,108.013,0,0.000885,0,0
0:7:31.824,853.583,108.682,0,0.000885,0,0
0:7:34.206,858.4,109.296,0,0.000885,0,0
0:7:36.623,862.626,109.833,0,0.000885,0,0
0:7:39.009,867.203,110.413,0,0.000885,0,0
0:7:41.426,872.661,111.109,0,0.000885,0,0
0:7:43.810,876.656,111.619,0,0.000885,0,0
0:7:46.231,881.584,112.247,0,0.000885,0,0
0:7:48.621,886.517,112.874,0,0.000885,0,0
0:7:51.022,890.623,113.398,0,0.000885,0,0
0:7:53.422,895.672,114.039,0,0.000885,0,0
0:7:55.828,900.605,114.667,0,0.000885,0,0
0:7:58.216,905.24,115.26,0,0.000885,0,0
0:8:0.619,909.701,115.825,0,0.000885,0,0
0:8:3.023,914.986,116.501,0,0.000885,0,0
0:8:5.410,919.327,117.052,0,0.000885,0,0
0:8:7.810,923.967,117.645,0,0.000885,0,0
0:8:10.202,928.953,118.28,0,0.000885,0,0
0:8:12.616,933.535,118.859,0,0.000885,0,0
0:8:15.008,937.525,119.369,0,0.000885,0,0
0:8:17.417,942.809,120.045,0,0.000885,0,0
0:8:19.803,948.09,120.713,0,0.000885,0,0
0:8:22.209,952.435,121.265,0,0.000885,0,0
0:8:24.623,957.128,121.865,0,0.000885,0,0
0:8:27.022,962.177,122.506,0,0.000885,0,0
0:8:29.405,966.639,123.078,0,0.000885,0,0
0:8:31.825,970.749,123.602,0,0.000885,0,0
0:8:34.209,975.797,124.244,0,0.000885,0,0
0:8:36.627,979.61,124.726,0,0.000885,0,0
0:8:39.029,985.717,125.505,0,0.000885,0,0
0:8:41.439,989.885,126.036,0,0.000885,0,0
0:8:43.820,994.698,126.65,0,0.000885,0,0
0:8:46.230,999.333,127.236,0,0.000885,0,0
0:8:48.615,1003.68,127.794,0,0.000885,0,0
0:8:51.040,1009.19,128.498,0,0.000885,0,0
0:8:53.432,1013.6,129.056,0,0.000885,0,0
0:8:55.832,1018.76,129.711,0,0.000885,0,0
0:8:58.226,1023.46,130.311,0,0.000885,0,0
0:9:0.610,1027.63,130.842,0,0.000885,0,0
0:9:3.014,1032.91,131.517,0,0.000885,0,0
0:9:5.414,1037.14,132.055,0,0.000885,0,0
0:9:7.819,1041.95,132.662,0,0.000885,0,0
0:9:10.227,1046.12,133.193,0,0.000885,0,0
0:9:12.631,1051.46,133.876,0,0.000885,0,0
0:9:15.027,1054.98,134.324,0,0.000885,0,0
0:9:17.433,1060.74,135.055,0,0.000885,0,0
0:9:19.813,1065.02,135.599,0,0.000885,0,0
0:9:22.224,1069.78,136.206,0,0.000885,0,0
0:9:24.613,1075.29,136.909,0,0.000885,0,0
0:9:27.022,1079.17,137.406,0,0.000885,0,0
0:9:29.394,1083.45,137.95,0,0.000885,0,0
0:9:31.803,1089.32,138.695,0,0.000885,0,0
0:9:34.183,1093.78,139.267,0,0.000885,0,0
0:9:36.584,1097.83,139.777,0,0.000885,0,0
0:9:38.968,1103.35,140.481,0,0.000885,0,0
0:9:40.539,993.172,126.457,0,0.000885,0,0