File: DataFile2021-06-07_080652.csv
Test ID:,Date Tested:,Time:,Test Type:,Diameter Avg. (mm):,Cyl. Corr. Factor:,Height (mm):,Age (days):,Weight (kN):,Break Type:,Ramp Rate (MPa/s):,Load at Break (kN):,Stress at Break (MPa):
12,6/7/2021,08:06,Cylinder,100,1,200,0,3.6,3,0.25,786.31,100.12
Sample Time,Load (kN),Stress (MPa),Long. Strain,Trans. Strain,Chan1 Deflection (mm),Chan2 Deflection (mm)
0:0:17.418,5.04428,0.641212,0,0.000885,0,0
0:0:19.105,9.44357,1.19969,0,0.000885,0,0
0:0:20.790,10.7336,1.36516,0,0.000885,0,0
0:0:22.484,16.0714,2.04774,0,0.000885,0,0
0:0:24.199,19.5321,2.48901,0,0.000885,0,0
0:0:25.886,21.2314,2.70274,0,0.000885,0,0
0:0:27.578,24.9857,3.17848,0,0.000885,0,0
0:0:29.298,28.3886,3.61285,0,0.000885,0,0
0:0:30.987,31.7292,4.04033,0,0.000885,0,0
0:0:32.680,35.0164,4.46091,0,0.000885,0,0
0:0:34.398,38.357,4.88149,0,0.000885,0,0
0:0:36.088,41.582,5.29517,0,0.000885,0,0
0:0:37.779,44.9849,5.72954,0,0.000885,0,0
0:0:39.496,48.6191,6.19149,0,0.000885,0,0
0:0:41.187,52.0798,6.63276,0,0.000885,0,0
0:0:42.886,54.8955,6.99128,0,0.000885,0,0
0:0:44.596,58.7699,7.48081,0,0.000885,0,0
0:0:46.287,62.0527,7.90139,0,0.000885,0,0
0:0:47.984,65.2777,8.30818,0,0.000885,0,0
0:0:49.697,68.7962,8.75634,0,0.000885,0,0
0:0:51.392,71.6697,9.12866,0,0.000885,0,0
0:0:53.088,75.1883,9.57682,0,0.000885,0,0
0:0:54.797,78.7068,10.025,0,0.000885,0,0
0:0:56.493,81.5848,10.3904,0,0.000885,0,0
0:0:58.189,85.4548,10.8799,0,0.000885,0,0
0:0:59.900,88.444,11.2591,0,0.000885,0,0
0:1:1.595,92.4919,11.7762,0,0.000885,0,0
0:1:3.300,95.014,12.1003,0,0.000885,0,0
0:1:5.002,98.9418,12.5967,0,0.000885,0,0
0:1:6.695,101.935,12.9759,0,0.000885,0,0
0:1:8.403,105.57,13.4448,0,0.000885,0,0
0:1:10.104,108.385,13.8033,0,0.000885,0,0
0:1:11.799,112.375,14.3066,0,0.000885,0,0
0:1:13.505,115.422,14.6996,0,0.000885,0,0
0:1:15.205,118.238,15.0581,0,0.000885,0,0
0:1:16.901,121.699,15.4925,0,0.000885,0,0
0:1:18.605,125.102,15.9269,0,0.000885,0,0
0:1:20.303,128.033,16.2992,0,0.000885,0,0
0:1:22.000,132.139,16.8232,0,0.000885,0,0
0:1:23.710,134.839,17.1679,0,0.000885,0,0
0:1:25.408,138.767,17.6713,0,0.000885,0,0
0:1:27.100,141.698,18.0436,0,0.000885,0,0
0:1:28.811,145.101,18.4779,0,0.000885,0,0
0:1:30.510,148.677,18.933,0,0.000885,0,0
0:1:32.201,151.965,19.3467,0,0.000885,0,0
0:1:33.915,155.719,19.8293,0,0.000885,0,0
0:1:35.613,158.472,20.1741,0,0.000885,0,0
0:1:37.302,162.111,20.6429,0,0.000885,0,0
0:1:39.020,165.278,21.0428,0,0.000885,0,0
0:1:40.712,168.739,21.4841,0,0.000885,0,0
0:1:42.401,171.844,21.8771,0,0.000885,0,0
0:1:44.117,175.482,22.3459,0,0.000885,0,0
0:1:45.812,179.179,22.8148,0,0.000885,0,0
0:1:47.501,181.817,23.1526,0,0.000885,0,0
0:1:49.214,185.042,23.5594,0,0.000885,0,0
0:1:50.910,188.68,24.0213,0,0.000885,0,0
0:1:52.603,192.021,24.4488,0,0.000885,0,0
0:1:54.306,194.952,24.8211,0,0.000885,0,0
0:1:55.987,198.591,25.2831,0,0.000885,0,0
0:1:57.667,201.642,25.6761,0,0.000885,0,0
0:1:59.367,205.748,26.1932,0,0.000885,0,0
0:2:1.055,208.737,26.5793,0,0.000885,0,0
0:2:2.751,211.669,26.9516,0,0.000885,0,0
0:2:4.455,215.072,27.386,0,0.000885,0,0
0:2:6.146,218.474,27.8135,0,0.000885,0,0
0:2:7.861,222.518,28.3306,0,0.000885,0,0
0:2:9.564,225.218,28.6753,0,0.000885,0,0
0:2:11.259,228.501,29.0959,0,0.000885,0,0
0:2:12.945,232.082,29.5509,0,0.000885,0,0
0:2:14.641,236.067,30.0542,0,0.000885,0,0
0:2:16.344,238.709,30.3921,0,0.000885,0,0
0:2:18.051,242.344,30.854,0,0.000885,0,0
0:2:19.761,244.866,31.1781,0,0.000885,0,0
0:2:21.445,248.442,31.6331,0,0.000885,0,0
0:2:23.145,252.432,32.1434,0,0.000885,0,0
0:2:24.850,255.541,32.5364,0,0.000885,0,0
0:2:26.544,258.357,32.8949,0,0.000885,0,0
0:2:28.261,262.169,33.3775,0,0.000885,0,0
0:2:29.956,265.688,33.8257,0,0.000885,0,0
0:2:31.662,268.677,34.2118,0,0.000885,0,0
0:2:33.361,272.253,34.6668,0,0.000885,0,0
0:2:35.067,274.953,35.0116,0,0.000885,0,0
0:2:36.751,278.65,35.4804,0,0.000885,0,0
0:2:38.447,282.342,35.9493,0,0.000885,0,0
0:2:40.164,284.984,36.2871,0,0.000885,0,0
0:2:41.859,288.445,36.7284,0,0.000885,0,0
0:2:43.562,292.902,37.2937,0,0.000885,0,0
0:2:45.261,294.837,37.542,0,0.000885,0,0
0:2:46.938,298.649,38.0246,0,0.000885,0,0
0:2:48.649,301.99,38.4521,0,0.000885,0,0
0:2:50.340,305.508,38.9002,0,0.000885,0,0
0:2:52.040,308.502,39.2794,0,0.000885,0,0
0:2:53.749,311.843,39.7069,0,0.000885,0,0
0:2:55.450,315.13,40.1206,0,0.000885,0,0
0:2:57.163,318.648,40.5688,0,0.000885,0,0
0:2:58.857,321.873,40.9824,0,0.000885,0,0
0:3:0.546,325.392,41.4306,0,0.000885,0,0
0:3:2.226,329.146,41.9063,0,0.000885,0,0
0:3:3.924,331.846,42.2511,0,0.000885,0,0
0:3:5.618,335.245,42.6854,0,0.000885,0,0
0:3:7.298,339.057,43.1681,0,0.000885,0,0
0:3:9.005,342.286,43.5818,0,0.000885,0,0
0:3:10.682,345.275,43.961,0,0.000885,0,0
0:3:12.356,348.207,44.3333,0,0.000885,0,0
0:3:14.065,352.077,44.8297,0,0.000885,0,0
0:3:15.763,356.009,45.3261,0,0.000885,0,0
0:3:17.453,358.295,45.6226,0,0.000885,0,0
0:3:19.157,361.872,46.0777,0,0.000885,0,0
0:3:20.855,365.159,46.4913,0,0.000885,0,0
0:3:22.551,368.913,46.974,0,0.000885,0,0
0:3:24.255,371.787,47.3394,0,0.000885,0,0
0:3:25.965,375.479,47.8082,0,0.000885,0,0
0:3:27.665,379.117,48.2702,0,0.000885,0,0
0:3:29.361,381.52,48.5736,0,0.000885,0,0
0:3:31.065,385.51,49.0838,0,0.000885,0,0
0:3:32.761,388.383,49.4492,0,0.000885,0,0
0:3:34.470,391.492,49.8491,0,0.000885,0,0
0:3:36.157,395.247,50.3248,0,0.000885,0,0
0:3:37.855,398.53,50.7454,0,0.000885,0,0
0:3:39.559,401.581,51.1315,0,0.000885,0,0
0:3:41.259,405.509,51.6279,0,0.000885,0,0
0:3:42.969,408.796,52.0485,0,0.000885,0,0
0:3:44.667,411.785,52.4277,0,0.000885,0,0
0:3:46.367,415.419,52.8897,0,0.000885,0,0
0:3:48.067,419.058,53.3585,0,0.000885,0,0
0:3:49.762,422.047,53.7377,0,0.000885,0,0
0:3:51.463,425.566,54.1859,0,0.000885,0,0
0:3:53.163,428.617,54.572,0,0.000885,0,0
0:3:54.862,431.549,54.9443,0,0.000885,0,0
0:3:56.563,435.481,55.4476,0,0.000885,0,0
0:3:58.264,438.47,55.8268,0,0.000885,0,0
0:3:59.963,441.989,56.275,0,0.000885,0,0
0:4:1.654,445.334,56.7025,0,0.000885,0,0
0:4:3.348,448.501,57.1024,0,0.000885,0,0
0:4:5.057,451.904,57.5367,0,0.000885,0,0
0:4:6.754,455.422,57.9849,0,0.000885,0,0
0:4:8.465,458.354,58.3572,0,0.000885,0,0
0:4:10.162,462.344,58.8674,0,0.000885,0,0
0:4:11.857,465.039,59.2122,0,0.000885,0,0
0:4:13.557,468.736,59.681,0,0.000885,0,0
0:4:15.265,472.134,60.1154,0,0.000885,0,0
0:4:16.970,475.479,60.5429,0,0.000885,0,0
0:4:18.679,478.882,60.9703,0,0.000885,0,0
0:4:20.376,481.871,61.3564,0,0.000885,0,0
0:4:22.061,485.51,61.8184,0,0.000885,0,0
0:4:23.765,488.384,62.1838,0,0.000885,0,0
0:4:25.467,492.431,62.7009,0,0.000885,0,0
0:4:27.145,495.479,63.087,0,0.000885,0,0
0:4:28.847,498.703,63.4938,0,0.000885,0,0
0:4:30.528,501.813,63.8937,0,0.000885,0,0
0:4:32.209,505.509,64.3626,0,0.000885,0,0
0:4:33.908,508.85,64.79,0,0.000885,0,0
0:4:35.591,512.431,65.2451,0,0.000885,0,0
0:4:37.269,514.953,65.5622,0,0.000885,0,0
0:4:38.976,519.116,66.0931,0,0.000885,0,0
0:4:40.652,521.696,66.4241,0,0.000885,0,0
0:4:42.374,525.099,66.8585,0,0.000885,0,0
0:4:44.079,528.791,67.3273,0,0.000885,0,0
0:4:45.774,532.136,67.7548,0,0.000885,0,0
0:4:47.452,535.303,68.1547,0,0.000885,0,0
0:4:49.157,538.706,68.589,0,0.000885,0,0
0:4:50.847,542.047,69.0165,0,0.000885,0,0
0:4:52.525,545.214,69.4164,0,0.000885,0,0
0:4:54.236,549.084,69.9128,0,0.000885,0,0
0:4:55.915,551.958,70.2783,0,0.000885,0,0
0:4:57.605,555.303,70.7057,0,0.000885,0,0
0:4:59.303,558.648,71.1263,0,0.000885,0,0
0:5:0.982,562.108,71.5676,0,0.000885,0,0
0:5:2.669,565.213,71.9675,0,0.000885,0,0
0:5:4.367,568.38,72.3674,0,0.000885,0,0
0:5:6.065,571.899,72.8155,0,0.000885,0,0
0:5:7.774,575.36,73.2568,0,0.000885,0,0
0:5:9.472,578.469,73.6498,0,0.000885,0,0
0:5:11.149,582.339,74.1462,0,0.000885,0,0
0:5:12.837,584.861,74.4703,0,0.000885,0,0
0:5:14.533,588.615,74.946,0,0.000885,0,0
0:5:16.215,591.725,75.339,0,0.000885,0,0
0:5:17.907,595.132,75.7734,0,0.000885,0,0
0:5:19.614,598.477,76.2009,0,0.000885,0,0
0:5:21.304,601.413,76.5732,0,0.000885,0,0
0:5:23.005,605.052,77.0351,0,0.000885,0,0
0:5:24.700,608.868,77.5247,0,0.000885,0,0
0:5:26.388,611.568,77.8694,0,0.000885,0,0
0:5:28.087,614.62,78.2555,0,0.000885,0,0
0:5:29.785,618.552,78.7588,0,0.000885,0,0
0:5:31.472,622.191,79.2208,0,0.000885,0,0
0:5:33.169,624.713,79.5379,0,0.000885,0,0
0:5:34.868,628.471,80.0206,0,0.000885,0,0
0:5:36.563,631.287,80.3791,0,0.000885,0,0
0:5:38.270,635.633,80.9307,0,0.000885,0,0
0:5:39.960,638.627,81.3099,0,0.000885,0,0
0:5:41.679,641.914,81.7305,0,0.000885,0,0
0:5:43.385,645.023,82.1303,0,0.000885,0,0
0:5:45.074,648.955,82.6268,0,0.000885,0,0
0:5:46.770,651.189,82.9095,0,0.000885,0,0
0:5:48.487,655.414,83.4472,0,0.000885,0,0
0:5:50.177,658.466,83.8402,0,0.000885,0,0
0:5:51.872,662.282,84.3229,0,0.000885,0,0
0:5:53.584,665.392,84.7228,0,0.000885,0,0
0:5:55.270,668.915,85.1709,0,0.000885,0,0
0:5:56.962,671.379,85.4812,0,0.000885,0,0
0:5:58.677,675.196,85.9707,0,0.000885,0,0
0:6:0.385,678.483,86.3844,0,0.000885,0,0
0:6:2.076,681.828,86.8119,0,0.000885,0,0
0:6:3.790,685.173,87.2394,0,0.000885,0,0
0:6:5.487,688.109,87.6117,0,0.000885,0,0
0:6:7.171,691.69,88.0667,0,0.000885,0,0
0:6:8.884,694.919,88.4804,0,0.000885,0,0
0:6:10.583,697.97,88.8665,0,0.000885,0,0
0:6:12.274,702.196,89.4043,0,0.000885,0,0
0:6:13.992,705.604,89.8387,0,0.000885,0,0
0:6:15.687,708.01,90.149,0,0.000885,0,0
0:6:17.382,712.058,90.6592,0,0.000885,0,0
0:6:19.096,714.816,91.0108,0,0.000885,0,0
0:6:20.792,718.397,91.4727,0,0.000885,0,0
0:6:22.488,721.568,91.8726,0,0.000885,0,0
0:6:24.195,725.149,92.3277,0,0.000885,0,0
0:6:25.877,728.908,92.8103,0,0.000885,0,0
0:6:27.593,731.781,93.1757,0,0.000885,0,0
0:6:29.297,735.362,93.6308,0,0.000885,0,0
0:6:30.984,738.827,94.0721,0,0.000885,0,0
0:6:32.677,742.288,94.5133,0,0.000885,0,0
0:6:34.384,745.753,94.9546,0,0.000885,0,0
0:6:36.090,748.689,95.3269,0,0.000885,0,0
0:6:37.791,751.62,95.6992,0,0.000885,0,0
0:6:39.497,755.437,96.1888,0,0.000885,0,0
0:6:41.187,758.902,96.6231,0,0.000885,0,0
0:6:42.888,761.66,96.9748,0,0.000885,0,0
0:6:44.582,764.538,97.3471,0,0.000885,0,0
0:6:46.285,768.764,97.8849,0,0.000885,0,0
0:6:47.994,772.167,98.3123,0,0.000885,0,0
0:6:49.688,774.867,98.6571,0,0.000885,0,0
0:6:51.390,778.977,99.1811,0,0.000885,0,0
0:6:53.091,781.557,99.512,0,0.000885,0,0
0:6:54.783,785.138,99.9671,0,0.000885,0,0
0:6:55.945,786.548,100.146,0,0.000885,0,0