File: DataFile2021-07-15_071659.csv
Test ID:,Date Tested:,Time:,Test Type:,Diameter Avg. (mm):,Cyl. Corr. Factor:,Height (mm):,Age (days):,Weight (kN):,Break Type:,Ramp Rate (MPa/s):,Load at Break (kN):,Stress at Break (MPa):
12,7/15/2021,07:16,Cylinder,100,1,200,0,3.6,3,0.25,1346.95,171.5
Sample Time,Load (kN),Stress (MPa),Long. Strain,Trans. Strain,Chan1 Deflection (mm),Chan2 Deflection (mm)
0:0:7.507,5.04428,0.641212,0,0.000885,0,0
0:0:10.409,10.4978,1.33758,0,0.000885,0,0
0:0:13.313,16.2449,2.06843,0,0.000885,0,0
0:0:16.213,21.347,2.71653,0,0.000885,0,0
0:0:19.119,27.6235,3.51633,0,0.000885,0,0
0:0:22.003,33.3127,4.24028,0,0.000885,0,0
0:0:24.914,39.4735,5.02628,0,0.000885,0,0
0:0:27.795,45.9234,5.84675,0,0.000885,0,0
0:0:30.709,51.2035,6.52244,0,0.000885,0,0
0:0:33.614,56.3634,7.17744,0,0.000885,0,0
0:0:36.510,62.4041,7.94276,0,0.000885,0,0
0:0:39.420,68.2713,8.69429,0,0.000885,0,0
0:0:42.306,73.667,9.37687,0,0.000885,0,0
0:0:45.224,79.1205,10.0732,0,0.000885,0,0
0:0:48.113,84.9254,10.811,0,0.000885,0,0
0:0:51.019,90.8505,11.5694,0,0.000885,0,0
0:0:53.923,96.5976,12.3002,0,0.000885,0,0
0:0:56.809,101.993,12.9828,0,0.000885,0,0
0:0:59.726,107.331,13.6654,0,0.000885,0,0
0:1:2.611,114.017,14.5204,0,0.000885,0,0
0:1:5.519,119.061,15.1616,0,0.000885,0,0
0:1:8.412,124.808,15.8924,0,0.000885,0,0
0:1:11.311,130.262,16.5888,0,0.000885,0,0
0:1:14.230,136.302,17.3541,0,0.000885,0,0
0:1:17.114,142.112,18.0918,0,0.000885,0,0
0:1:20.023,147.681,18.802,0,0.000885,0,0
0:1:22.916,153.664,19.5673,0,0.000885,0,0
0:1:25.822,158.65,20.2016,0,0.000885,0,0
0:1:28.721,164.807,20.9807,0,0.000885,0,0
0:1:31.616,170.38,21.6909,0,0.000885,0,0
0:1:34.536,176.363,22.4562,0,0.000885,0,0
0:1:37.417,181.995,23.1733,0,0.000885,0,0
0:1:40.327,187.097,23.8214,0,0.000885,0,0
0:1:43.226,193.195,24.6005,0,0.000885,0,0
0:1:46.111,198.827,25.3175,0,0.000885,0,0
0:1:49.016,204.747,26.0691,0,0.000885,0,0
0:1:51.913,210.499,26.7999,0,0.000885,0,0
0:1:54.806,215.659,27.4618,0,0.000885,0,0
0:1:57.713,222.051,28.2754,0,0.000885,0,0
0:2:0.611,227.269,28.9373,0,0.000885,0,0
0:2:3.505,232.784,29.6406,0,0.000885,0,0
0:2:6.400,238.941,30.4197,0,0.000885,0,0
0:2:9.317,243.754,31.0333,0,0.000885,0,0
0:2:12.208,250.088,31.84,0,0.000885,0,0
0:2:15.098,255.951,32.5915,0,0.000885,0,0
0:2:18.005,261.698,33.3224,0,0.000885,0,0
0:2:20.916,267.036,33.998,0,0.000885,0,0
0:2:23.805,273.076,34.7703,0,0.000885,0,0
0:2:26.714,278.121,35.4115,0,0.000885,0,0
0:2:29.623,284.748,36.2526,0,0.000885,0,0
0:2:32.510,290.086,36.9352,0,0.000885,0,0
0:2:35.417,295.188,37.5833,0,0.000885,0,0
0:2:38.325,300.82,38.3004,0,0.000885,0,0
0:2:41.206,306.803,39.0657,0,0.000885,0,0
0:2:44.120,313.31,39.8931,0,0.000885,0,0
0:2:47.005,317.888,40.4722,0,0.000885,0,0
0:2:49.911,323.693,41.2169,0,0.000885,0,0
0:2:52.819,329.675,41.9753,0,0.000885,0,0
0:2:55.725,335.307,42.6923,0,0.000885,0,0
0:2:58.624,341.112,43.4301,0,0.000885,0,0
0:3:1.513,346.917,44.1678,0,0.000885,0,0
0:3:4.412,352.433,44.8711,0,0.000885,0,0
0:3:7.319,358.002,45.5812,0,0.000885,0,0
0:3:10.221,364.278,46.381,0,0.000885,0,0
0:3:13.128,369.616,47.0636,0,0.000885,0,0
0:3:16.014,375.657,47.8289,0,0.000885,0,0
0:3:18.926,381.11,48.5253,0,0.000885,0,0
0:3:21.824,387.151,49.2906,0,0.000885,0,0
0:3:24.722,392.667,49.9939,0,0.000885,0,0
0:3:27.626,398.356,50.7178,0,0.000885,0,0
0:3:30.508,403.752,51.4073,0,0.000885,0,0
0:3:33.415,409.147,52.0968,0,0.000885,0,0
0:3:36.316,415.597,52.9173,0,0.000885,0,0
0:3:39.222,420.993,53.5998,0,0.000885,0,0
0:3:42.127,426.74,54.3376,0,0.000885,0,0
0:3:45.023,432.136,55.0202,0,0.000885,0,0
0:3:47.918,438.354,55.8131,0,0.000885,0,0
0:3:50.813,443.457,56.4612,0,0.000885,0,0
0:3:53.712,449.261,57.1989,0,0.000885,0,0
0:3:56.611,455.716,58.0263,0,0.000885,0,0
0:3:59.512,460.934,58.6882,0,0.000885,0,0
0:4:2.427,466.449,59.3914,0,0.000885,0,0
0:4:5.310,471.489,60.0327,0,0.000885,0,0
0:4:8.216,477.824,60.8393,0,0.000885,0,0
0:4:11.121,483.806,61.5978,0,0.000885,0,0
0:4:14.020,489.086,62.2734,0,0.000885,0,0
0:4:16.912,495.069,63.0319,0,0.000885,0,0
0:4:19.813,501.11,63.8041,0,0.000885,0,0
0:4:22.720,506.448,64.4798,0,0.000885,0,0
0:4:25.618,512.311,65.2313,0,0.000885,0,0
0:4:28.534,517.942,65.9484,0,0.000885,0,0
0:4:31.427,522.928,66.5827,0,0.000885,0,0
0:4:34.324,529.436,67.41,0,0.000885,0,0
0:4:37.235,535.246,68.1478,0,0.000885,0,0
0:4:40.136,539.818,68.7338,0,0.000885,0,0
0:4:43.032,546.273,69.5543,0,0.000885,0,0
0:4:45.923,551.784,70.2576,0,0.000885,0,0
0:4:48.833,557.647,71.0022,0,0.000885,0,0
0:4:51.724,563.456,71.7399,0,0.000885,0,0
0:4:54.625,569.088,72.457,0,0.000885,0,0
0:4:57.518,574.599,73.1603,0,0.000885,0,0
0:5:0.427,580.173,73.8704,0,0.000885,0,0
0:5:3.325,586.271,74.6495,0,0.000885,0,0
0:5:6.228,592.023,75.3804,0,0.000885,0,0
0:5:9.127,597.539,76.0836,0,0.000885,0,0
0:5:12.033,603.117,76.7938,0,0.000885,0,0
0:5:14.937,609.046,77.5453,0,0.000885,0,0
0:5:17.809,614.562,78.2486,0,0.000885,0,0
0:5:20.722,619.495,78.876,0,0.000885,0,0
0:5:23.630,625.834,79.6827,0,0.000885,0,0
0:5:26.527,631.937,80.4618,0,0.000885,0,0
0:5:29.433,637.337,81.1513,0,0.000885,0,0
0:5:32.317,642.501,81.8063,0,0.000885,0,0
0:5:35.216,649.018,82.6337,0,0.000885,0,0
0:5:38.094,654.067,83.2818,0,0.000885,0,0
0:5:40.995,660.169,84.054,0,0.000885,0,0
0:5:43.891,665.983,84.7986,0,0.000885,0,0
0:5:46.772,671.619,85.5157,0,0.000885,0,0
0:5:49.670,677.664,86.281,0,0.000885,0,0
0:5:52.550,682.593,86.9084,0,0.000885,0,0
0:5:55.448,688.349,87.6462,0,0.000885,0,0
0:5:58.336,693.687,88.3218,0,0.000885,0,0
0:6:1.229,699.794,89.1009,0,0.000885,0,0
0:6:4.126,705.137,89.7835,0,0.000885,0,0
0:6:7.025,711.124,90.542,0,0.000885,0,0
0:6:9.942,716.818,91.2659,0,0.000885,0,0
0:6:12.832,722.627,92.0105,0,0.000885,0,0
0:6:15.740,728.085,92.7,0,0.000885,0,0
0:6:18.647,734.014,93.4584,0,0.000885,0,0
0:6:21.528,739.944,94.21,0,0.000885,0,0
0:6:24.436,745.402,94.9063,0,0.000885,0,0
0:6:27.347,751.331,95.6648,0,0.000885,0,0
0:6:30.248,756.847,96.368,0,0.000885,0,0
0:6:33.140,761.958,97.0161,0,0.000885,0,0
0:6:36.044,768.47,97.8435,0,0.000885,0,0
0:6:38.936,774.048,98.5537,0,0.000885,0,0
0:6:41.828,779.626,99.2638,0,0.000885,0,0
0:6:44.736,785.378,99.9947,0,0.000885,0,0
0:6:47.635,790.836,100.691,0,0.000885,0,0
0:6:50.534,796.645,101.436,0,0.000885,0,0
0:6:53.429,802.108,102.125,0,0.000885,0,0
0:6:56.339,807.739,102.842,0,0.000885,0,0
0:6:59.262,813.904,103.628,0,0.000885,0,0
0:7:2.140,819.362,104.325,0,0.000885,0,0
0:7:5.045,824.883,105.028,0,0.000885,0,0
0:7:7.937,831.221,105.835,0,0.000885,0,0
0:7:10.834,835.977,106.441,0,0.000885,0,0
0:7:13.728,842.022,107.207,0,0.000885,0,0
0:7:16.632,847.658,107.924,0,0.000885,0,0
0:7:19.537,853.467,108.668,0,0.000885,0,0
0:7:22.435,859.045,109.378,0,0.000885,0,0
0:7:25.337,864.854,110.116,0,0.000885,0,0
0:7:28.234,870.197,110.799,0,0.000885,0,0
0:7:31.135,876.362,111.585,0,0.000885,0,0
0:7:34.036,881.936,112.295,0,0.000885,0,0
0:7:36.939,888.688,113.15,0,0.000885,0,0
0:7:39.861,893.501,113.763,0,0.000885,0,0
0:7:42.741,898.665,114.418,0,0.000885,0,0
0:7:45.653,904.595,115.177,0,0.000885,0,0
0:7:48.556,910.404,115.915,0,0.000885,0,0
0:7:51.456,916.218,116.659,0,0.000885,0,0
0:7:54.367,921.089,117.28,0,0.000885,0,0
0:7:57.242,928.25,118.19,0,0.000885,0,0
0:8:0.148,933.121,118.81,0,0.000885,0,0
0:8:3.053,938.757,119.528,0,0.000885,0,0
0:8:5.956,944.744,120.286,0,0.000885,0,0
0:8:8.855,950.323,120.996,0,0.000885,0,0
0:8:11.756,956.074,121.734,0,0.000885,0,0
0:8:14.664,961.652,122.444,0,0.000885,0,0
0:8:17.553,967.755,123.216,0,0.000885,0,0
0:8:20.454,972.977,123.885,0,0.000885,0,0
0:8:23.343,978.965,124.643,0,0.000885,0,0
0:8:26.243,983.782,125.257,0,0.000885,0,0
0:8:29.145,990.588,126.126,0,0.000885,0,0
0:8:32.047,995.872,126.801,0,0.000885,0,0
0:8:34.956,1001.68,127.539,0,0.000885,0,0
0:8:37.845,1007.38,128.263,0,0.000885,0,0
0:8:40.755,1012.37,128.897,0,0.000885,0,0
0:8:43.668,1018.88,129.725,0,0.000885,0,0
0:8:46.550,1024.99,130.504,0,0.000885,0,0
0:8:49.454,1030.68,131.228,0,0.000885,0,0
0:8:52.338,1035.96,131.904,0,0.000885,0,0
0:8:55.263,1042.01,132.676,0,0.000885,0,0
0:8:58.144,1046.88,133.296,0,0.000885,0,0
0:9:1.048,1052.52,134.013,0,0.000885,0,0
0:9:3.965,1059.09,134.848,0,0.000885,0,0
0:9:6.846,1064.2,135.496,0,0.000885,0,0
0:9:9.748,1070.48,136.296,0,0.000885,0,0
0:9:12.649,1075.64,136.957,0,0.000885,0,0
0:9:15.548,1081.4,137.688,0,0.000885,0,0
0:9:18.450,1086.97,138.398,0,0.000885,0,0
0:9:21.338,1092.43,139.095,0,0.000885,0,0
0:9:24.239,1097.66,139.757,0,0.000885,0,0
0:9:27.114,1104.12,140.577,0,0.000885,0,0
0:9:30.020,1110.4,141.377,0,0.000885,0,0
0:9:32.898,1115.09,141.977,0,0.000885,0,0
0:9:35.796,1121.61,142.804,0,0.000885,0,0
0:9:38.695,1126.89,143.48,0,0.000885,0,0
0:9:41.576,1132.46,144.19,0,0.000885,0,0
0:9:44.478,1137.63,144.845,0,0.000885,0,0
0:9:47.355,1144.21,145.686,0,0.000885,0,0
0:9:50.267,1150.19,146.445,0,0.000885,0,0
0:9:53.179,1155.12,147.072,0,0.000885,0,0
0:9:56.069,1160.99,147.824,0,0.000885,0,0
0:9:58.968,1166.92,148.575,0,0.000885,0,0
0:10:1.844,1172.79,149.327,0,0.000885,0,0
0:10:4.745,1177.13,149.878,0,0.000885,0,0
0:10:7.630,1183.41,150.678,0,0.000885,0,0
0:10:10.531,1189.4,151.436,0,0.000885,0,0
0:10:13.424,1194.74,152.119,0,0.000885,0,0
0:10:16.311,1200.91,152.905,0,0.000885,0,0
0:10:19.214,1206.66,153.636,0,0.000885,0,0
0:10:22.088,1212.53,154.387,0,0.000885,0,0
0:10:24.994,1217.34,154.994,0,0.000885,0,0
0:10:27.876,1223.27,155.753,0,0.000885,0,0
0:10:30.769,1229.32,156.525,0,0.000885,0,0
0:10:33.676,1234.6,157.194,0,0.000885,0,0
0:10:36.556,1240.36,157.924,0,0.000885,0,0
0:10:39.480,1245.76,158.614,0,0.000885,0,0
0:10:42.355,1252.39,159.462,0,0.000885,0,0
0:10:45.262,1257.09,160.055,0,0.000885,0,0
0:10:48.160,1263.37,160.855,0,0.000885,0,0
0:10:51.068,1268.41,161.496,0,0.000885,0,0
0:10:53.978,1274.46,162.268,0,0.000885,0,0
0:10:56.857,1279.68,162.937,0,0.000885,0,0
0:10:59.775,1286.02,163.744,0,0.000885,0,0
0:11:2.663,1291.48,164.433,0,0.000885,0,0
0:11:5.573,1297.18,165.164,0,0.000885,0,0
0:11:8.474,1303.04,165.909,0,0.000885,0,0
0:11:11.359,1308.8,166.639,0,0.000885,0,0
0:11:14.261,1314.32,167.343,0,0.000885,0,0
0:11:17.155,1320.6,168.142,0,0.000885,0,0
0:11:20.070,1325.41,168.756,0,0.000885,0,0
0:11:22.972,1331.81,169.57,0,0.000885,0,0
0:11:25.871,1329.93,169.335,0,0.000885,0,0
0:11:28.787,1346.95,171.5,0,0.000885,0,0
0:11:31.671,1346.54,171.445,0,0.000885,0,0
0:11:32.296,1292.36,164.55,0,0.000885,0,0