File: DataFile2021-07-15_060505.csv
Test ID:,Date Tested:,Time:,Test Type:,Diameter Avg. (mm):,Cyl. Corr. Factor:,Height (mm):,Age (days):,Weight (kN):,Break Type:,Ramp Rate (MPa/s):,Load at Break (kN):,Stress at Break (MPa):
12,7/15/2021,06:05,Cylinder,150,1,300,0,3.6,3,0.25,1658.27,93.84
Sample Time,Load (kN),Stress (MPa),Long. Strain,Trans. Strain,Chan1 Deflection (mm),Chan2 Deflection (mm)
0:0:12.992,5.68928,0.324054,0,0.000885,0,0
0:0:14.680,11.4364,0.648107,0,0.000885,0,0
0:0:16.367,18.6514,1.0549,0,0.000885,0,0
0:0:18.062,27.6813,1.56511,0,0.000885,0,0
0:0:19.779,35.5991,2.01327,0,0.000885,0,0
0:0:21.470,42.9342,2.42695,0,0.000885,0,0
0:0:23.159,50.2026,2.84064,0,0.000885,0,0
0:0:24.879,58.592,3.31638,0,0.000885,0,0
0:0:26.571,64.9262,3.67491,0,0.000885,0,0
0:0:28.262,72.9597,4.12996,0,0.000885,0,0
0:0:29.982,80.1169,4.53675,0,0.000885,0,0
0:0:31.674,87.799,4.97112,0,0.000885,0,0
0:0:33.373,95.1875,5.38481,0,0.000885,0,0
0:0:35.082,102.696,5.81228,0,0.000885,0,0
0:0:36.776,110.263,6.23976,0,0.000885,0,0
0:0:38.475,117.713,6.66034,0,0.000885,0,0
0:0:40.187,125.16,7.08092,0,0.000885,0,0
0:0:41.879,132.842,7.51529,0,0.000885,0,0
0:0:43.581,140.586,7.95655,0,0.000885,0,0
0:0:45.292,148.21,8.38402,0,0.000885,0,0
0:0:46.981,155.305,8.79082,0,0.000885,0,0
0:0:48.686,162.992,9.22519,0,0.000885,0,0
0:0:50.398,169.793,9.61129,0,0.000885,0,0
0:0:52.088,178.12,10.0801,0,0.000885,0,0
0:0:53.791,185.807,10.5145,0,0.000885,0,0
0:0:55.499,192.372,10.8868,0,0.000885,0,0
0:0:57.174,201.055,11.3763,0,0.000885,0,0
0:0:58.867,207.621,11.7487,0,0.000885,0,0
0:1:0.566,215.774,12.2106,0,0.000885,0,0
0:1:2.244,222.696,12.6036,0,0.000885,0,0
0:1:3.935,230.436,13.038,0,0.000885,0,0
0:1:5.628,237.357,13.431,0,0.000885,0,0
0:1:7.324,244.981,13.8654,0,0.000885,0,0
0:1:9.033,252.784,14.3066,0,0.000885,0,0
0:1:10.733,260.466,14.741,0,0.000885,0,0
0:1:12.429,267.623,15.1409,0,0.000885,0,0
0:1:14.138,275.421,15.589,0,0.000885,0,0
0:1:15.826,282.404,15.982,0,0.000885,0,0
0:1:17.535,290.144,16.4164,0,0.000885,0,0
0:1:19.229,297.946,16.8577,0,0.000885,0,0
0:1:20.928,304.632,17.2369,0,0.000885,0,0
0:1:22.628,313.253,17.7264,0,0.000885,0,0
0:1:24.340,320.054,18.1125,0,0.000885,0,0
0:1:26.028,327.563,18.5331,0,0.000885,0,0
0:1:27.720,335.071,18.9606,0,0.000885,0,0
0:1:29.419,343.807,19.457,0,0.000885,0,0
0:1:31.121,349.617,19.7811,0,0.000885,0,0
0:1:32.823,357.766,20.243,0,0.000885,0,0
0:1:34.521,365.684,20.6912,0,0.000885,0,0
0:1:36.231,372.841,21.098,0,0.000885,0,0
0:1:37.936,380.581,21.5392,0,0.000885,0,0
0:1:39.643,387.151,21.9115,0,0.000885,0,0
0:1:41.334,395.42,22.3735,0,0.000885,0,0
0:1:43.014,401.932,22.7458,0,0.000885,0,0
0:1:44.722,410.437,23.2284,0,0.000885,0,0
0:1:46.398,417.474,23.6214,0,0.000885,0,0
0:1:48.077,425.566,24.0834,0,0.000885,0,0
0:1:49.782,432.487,24.4764,0,0.000885,0,0
0:1:51.463,440.347,24.9177,0,0.000885,0,0
0:1:53.142,446.917,25.29,0,0.000885,0,0
0:1:54.845,455.774,25.7933,0,0.000885,0,0
0:1:56.526,462.224,26.1587,0,0.000885,0,0
0:1:58.226,470.844,26.6413,0,0.000885,0,0
0:1:59.925,477.472,27.0206,0,0.000885,0,0
0:2:1.627,485.159,27.4549,0,0.000885,0,0
0:2:3.319,492.489,27.8686,0,0.000885,0,0
0:2:5.040,499.762,28.2823,0,0.000885,0,0
0:2:6.743,507.738,28.7305,0,0.000885,0,0
0:2:8.433,515.184,29.151,0,0.000885,0,0
0:2:10.145,522.693,29.5785,0,0.000885,0,0
0:2:11.823,529.499,29.9646,0,0.000885,0,0
0:2:13.546,537.999,30.4472,0,0.000885,0,0
0:2:15.242,545.272,30.854,0,0.000885,0,0
0:2:16.947,552.487,31.2677,0,0.000885,0,0
0:2:18.641,560.405,31.7159,0,0.000885,0,0
0:2:20.334,567.442,32.1089,0,0.000885,0,0
0:2:22.041,575.36,32.557,0,0.000885,0,0
0:2:23.743,582.281,32.95,0,0.000885,0,0
0:2:25.442,590.377,33.412,0,0.000885,0,0
0:2:27.127,597.89,33.8326,0,0.000885,0,0
0:2:28.833,604.994,34.2325,0,0.000885,0,0
0:2:30.539,612.92,34.6875,0,0.000885,0,0
0:2:32.235,620.371,35.1081,0,0.000885,0,0
0:2:33.938,627.826,35.5287,0,0.000885,0,0
0:2:35.635,635.046,35.9355,0,0.000885,0,0
0:2:37.331,643.502,36.4181,0,0.000885,0,0
0:2:39.045,650.544,36.8111,0,0.000885,0,0
0:2:40.744,658.057,37.2386,0,0.000885,0,0
0:2:42.438,665.454,37.6592,0,0.000885,0,0
0:2:44.143,672.794,38.0728,0,0.000885,0,0
0:2:45.836,680.422,38.5072,0,0.000885,0,0
0:2:47.548,687.7,38.914,0,0.000885,0,0
0:2:49.253,695.568,39.3622,0,0.000885,0,0
0:2:50.945,703.197,39.7896,0,0.000885,0,0
0:2:52.633,710.83,40.224,0,0.000885,0,0
0:2:54.340,718.285,40.6446,0,0.000885,0,0
0:2:56.033,725.443,41.0514,0,0.000885,0,0
0:2:57.732,732.782,41.4651,0,0.000885,0,0
0:2:59.439,740.002,41.8788,0,0.000885,0,0
0:3:1.138,748.395,42.3476,0,0.000885,0,0
0:3:2.840,755.379,42.7475,0,0.000885,0,0
0:3:4.548,763.07,43.1819,0,0.000885,0,0
0:3:6.238,770.583,43.6093,0,0.000885,0,0
0:3:7.946,777.981,44.023,0,0.000885,0,0
0:3:9.663,785.436,44.4436,0,0.000885,0,0
0:3:11.349,792.949,44.8711,0,0.000885,0,0
0:3:13.037,799.933,45.2641,0,0.000885,0,0
0:3:14.754,808.446,45.7467,0,0.000885,0,0
0:3:16.449,815.782,46.1673,0,0.000885,0,0
0:3:18.136,823.295,46.5879,0,0.000885,0,0
0:3:19.850,830.456,46.9947,0,0.000885,0,0
0:3:21.547,838.383,47.4428,0,0.000885,0,0
0:3:23.244,845.251,47.8289,0,0.000885,0,0
0:3:24.963,853.293,48.284,0,0.000885,0,0
0:3:26.649,861.158,48.7321,0,0.000885,0,0
0:3:28.350,867.732,49.1045,0,0.000885,0,0
0:3:30.062,875.655,49.5526,0,0.000885,0,0
0:3:31.749,883.052,49.9732,0,0.000885,0,0
0:3:33.459,890.565,50.3938,0,0.000885,0,0
0:3:35.160,897.785,50.8075,0,0.000885,0,0
0:3:36.844,905.36,51.2349,0,0.000885,0,0
0:3:38.544,913.104,51.6693,0,0.000885,0,0
0:3:40.250,920.502,52.0899,0,0.000885,0,0
0:3:41.941,928.722,52.5518,0,0.000885,0,0
0:3:43.639,935.706,52.9517,0,0.000885,0,0
0:3:45.353,943.806,53.4068,0,0.000885,0,0
0:3:47.042,950.674,53.7998,0,0.000885,0,0
0:3:48.740,958.365,54.2342,0,0.000885,0,0
0:3:50.442,965.642,54.641,0,0.000885,0,0
0:3:52.136,973.04,55.0615,0,0.000885,0,0
0:3:53.852,981.313,55.5304,0,0.000885,0,0
0:3:55.545,988.123,55.9165,0,0.000885,0,0
0:3:57.241,996.046,56.3646,0,0.000885,0,0
0:3:58.952,1003.62,56.7921,0,0.000885,0,0
0:4:0.647,1010.31,57.1713,0,0.000885,0,0
0:4:2.354,1018.65,57.6471,0,0.000885,0,0
0:4:4.054,1026.16,58.0676,0,0.000885,0,0
0:4:5.748,1033.79,58.502,0,0.000885,0,0
0:4:7.438,1041.13,58.9157,0,0.000885,0,0
0:4:9.161,1048.58,59.3363,0,0.000885,0,0
0:4:10.858,1055.45,59.7293,0,0.000885,0,0
0:4:12.547,1063.44,60.1774,0,0.000885,0,0
0:4:14.258,1071.01,60.6049,0,0.000885,0,0
0:4:15.944,1077.99,61.0048,0,0.000885,0,0
0:4:17.658,1085.92,61.453,0,0.000885,0,0
0:4:19.364,1093.72,61.8942,0,0.000885,0,0
0:4:21.056,1101.3,62.3217,0,0.000885,0,0
0:4:22.744,1108.75,62.7423,0,0.000885,0,0
0:4:24.453,1116.03,63.156,0,0.000885,0,0
0:4:26.155,1122.72,63.5352,0,0.000885,0,0
0:4:27.842,1130.76,63.9902,0,0.000885,0,0
0:4:29.561,1138.63,64.4315,0,0.000885,0,0
0:4:31.256,1146.14,64.859,0,0.000885,0,0
0:4:32.960,1153.95,65.3002,0,0.000885,0,0
0:4:34.675,1160.87,65.6932,0,0.000885,0,0
0:4:36.363,1168.33,66.1138,0,0.000885,0,0
0:4:38.045,1175.84,66.5413,0,0.000885,0,0
0:4:39.762,1183.59,66.9757,0,0.000885,0,0
0:4:41.460,1191.51,67.4238,0,0.000885,0,0
0:4:43.145,1198.15,67.803,0,0.000885,0,0
0:4:44.863,1206.42,68.2719,0,0.000885,0,0
0:4:46.562,1213.88,68.6925,0,0.000885,0,0
0:4:48.262,1220.93,69.0924,0,0.000885,0,0
0:4:49.969,1228.26,69.506,0,0.000885,0,0
0:4:51.661,1236.07,69.9473,0,0.000885,0,0
0:4:53.357,1243.52,70.3679,0,0.000885,0,0
0:4:55.064,1251.21,70.8023,0,0.000885,0,0
0:4:56.758,1258.9,71.2366,0,0.000885,0,0
0:4:58.458,1266.42,71.6641,0,0.000885,0,0
0:5:0.168,1273.64,72.0709,0,0.000885,0,0
0:5:1.858,1280.8,72.4777,0,0.000885,0,0
0:5:3.559,1288.78,72.9327,0,0.000885,0,0
0:5:5.260,1296.35,73.3602,0,0.000885,0,0
0:5:6.965,1304.28,73.8084,0,0.000885,0,0
0:5:8.668,1311.67,74.229,0,0.000885,0,0
0:5:10.369,1319.07,74.6426,0,0.000885,0,0
0:5:12.053,1326.17,75.0425,0,0.000885,0,0
0:5:13.754,1333.39,75.4562,0,0.000885,0,0
0:5:15.461,1341.37,75.9044,0,0.000885,0,0
0:5:17.144,1348.71,76.325,0,0.000885,0,0
0:5:18.854,1356.29,76.7524,0,0.000885,0,0
0:5:20.563,1364.33,77.2075,0,0.000885,0,0
0:5:22.256,1371.37,77.6005,0,0.000885,0,0
0:5:23.965,1378.36,78.0004,0,0.000885,0,0
0:5:25.661,1386.28,78.4485,0,0.000885,0,0
0:5:27.355,1393.97,78.8829,0,0.000885,0,0
0:5:29.072,1401.89,79.3311,0,0.000885,0,0
0:5:30.770,1409,79.731,0,0.000885,0,0
0:5:32.467,1416.57,80.1584,0,0.000885,0,0
0:5:34.172,1424.08,80.5859,0,0.000885,0,0
0:5:35.869,1432.01,81.0341,0,0.000885,0,0
0:5:37.556,1439.17,81.4409,0,0.000885,0,0
0:5:39.265,1446.74,81.8683,0,0.000885,0,0
0:5:40.952,1453.31,82.2407,0,0.000885,0,0
0:5:42.652,1461.24,82.6888,0,0.000885,0,0
0:5:44.372,1468.75,83.1163,0,0.000885,0,0
0:5:46.065,1476.32,83.5438,0,0.000885,0,0
0:5:47.753,1483.86,83.9712,0,0.000885,0,0
0:5:49.465,1491.34,84.3918,0,0.000885,0,0
0:5:51.157,1498.81,84.8124,0,0.000885,0,0
0:5:52.854,1506.71,85.2606,0,0.000885,0,0
0:5:54.574,1513.83,85.6674,0,0.000885,0,0
0:5:56.268,1522.13,86.1362,0,0.000885,0,0
0:5:57.965,1528.9,86.5154,0,0.000885,0,0
0:5:59.684,1536.26,86.936,0,0.000885,0,0
0:6:1.378,1544.56,87.4048,0,0.000885,0,0
0:6:3.065,1551.51,87.7978,0,0.000885,0,0
0:6:4.784,1559.23,88.2322,0,0.000885,0,0
0:6:6.475,1566.77,88.6597,0,0.000885,0,0
0:6:8.167,1572.89,89.0044,0,0.000885,0,0
0:6:9.875,1581.19,89.4802,0,0.000885,0,0
0:6:11.575,1589.73,89.9628,0,0.000885,0,0
0:6:13.262,1596.85,90.3627,0,0.000885,0,0
0:6:14.972,1603.8,90.7557,0,0.000885,0,0
0:6:16.670,1605.45,90.8522,0,0.000885,0,0
0:6:18.368,1620.46,91.7003,0,0.000885,0,0
0:6:20.077,1628.83,92.176,0,0.000885,0,0
0:6:21.763,1635.66,92.5621,0,0.000885,0,0
0:6:23.463,1643.08,92.9758,0,0.000885,0,0
0:6:25.172,1645.49,93.1137,0,0.000885,0,0
0:6:26.858,1654.8,93.6446,0,0.000885,0,0
0:6:28.556,1522.84,86.1776,0,0.000885,0,0
0:6:30.255,1463.29,82.806,0,0.000885,0,0
0:6:31.945,1330.46,75.2907,0,0.000885,0,0
0:6:33.638,1301.05,73.6222,0,0.000885,0,0
0:6:35.338,1280.15,72.4432,0,0.000885,0,0
0:6:37.018,1170.03,66.2104,0,0.000885,0,0
0:6:37.368,1162.81,65.8036,0,0.000885,0,0