File: DataFile2021-07-17_054218.csv
Test ID:,Date Tested:,Time:,Test Type:,Diameter Avg. (mm):,Cyl. Corr. Factor:,Height (mm):,Age (days):,Weight (kN):,Break Type:,Ramp Rate (MPa/s):,Load at Break (kN):,Stress at Break (MPa):
12,7/17/2021,05:42,Cylinder,100,1,200,0,3.6,3,0.25,727.85,92.67
Sample Time,Load (kN),Stress (MPa),Long. Strain,Trans. Strain,Chan1 Deflection (mm),Chan2 Deflection (mm)
0:0:8.900,5.80493,0.737739,0,0.000885,0,0
0:0:10.489,7.91783,1.00663,0,0.000885,0,0
0:0:12.080,11.085,1.41343,0,0.000885,0,0
0:0:13.668,14.3678,1.82711,0,0.000885,0,0
0:0:15.279,17.2413,2.19253,0,0.000885,0,0
0:0:16.873,20.7643,2.64069,0,0.000885,0,0
0:0:18.466,23.8692,3.04059,0,0.000885,0,0
0:0:20.079,27.6813,3.52322,0,0.000885,0,0
0:0:21.678,29.9721,3.8128,0,0.000885,0,0
0:0:23.269,33.0191,4.2058,0,0.000885,0,0
0:0:24.876,36.8891,4.69533,0,0.000885,0,0
0:0:26.482,39.8249,5.06765,0,0.000885,0,0
0:0:28.077,43.1655,5.49512,0,0.000885,0,0
0:0:29.681,45.6299,5.81228,0,0.000885,0,0
0:0:31.285,49.5576,6.3087,0,0.000885,0,0
0:0:32.875,52.1421,6.63965,0,0.000885,0,0
0:0:34.477,55.0156,7.00507,0,0.000885,0,0
0:0:36.086,58.9434,7.50839,0,0.000885,0,0
0:0:37.682,61.6435,7.84623,0,0.000885,0,0
0:0:39.275,64.9262,8.26681,0,0.000885,0,0
0:0:40.895,68.0355,8.65982,0,0.000885,0,0
0:0:42.486,70.6733,8.99766,0,0.000885,0,0
0:0:44.078,73.9561,9.41824,0,0.000885,0,0
0:0:45.692,77.4168,9.8595,0,0.000885,0,0
0:0:47.286,80.3527,10.2318,0,0.000885,0,0
0:0:48.879,83.8134,10.6731,0,0.000885,0,0
0:0:50.497,86.9805,11.073,0,0.000885,0,0
0:0:52.091,89.5027,11.397,0,0.000885,0,0
0:0:53.686,92.9589,11.8383,0,0.000885,0,0
0:0:55.298,96.4819,12.2865,0,0.000885,0,0
0:0:56.896,99.8225,12.707,0,0.000885,0,0
0:0:58.486,102.638,13.0656,0,0.000885,0,0
0:1:0.099,105.805,13.4724,0,0.000885,0,0
0:1:1.702,108.737,13.8447,0,0.000885,0,0
0:1:3.296,112.024,14.2653,0,0.000885,0,0
0:1:4.899,114.777,14.6169,0,0.000885,0,0
0:1:6.516,118.59,15.0995,0,0.000885,0,0
0:1:8.124,121.054,15.4098,0,0.000885,0,0
0:1:9.748,124.515,15.851,0,0.000885,0,0
0:1:11.359,128.091,16.3061,0,0.000885,0,0
0:1:12.955,130.262,16.5888,0,0.000885,0,0
0:1:14.547,133.429,16.9887,0,0.000885,0,0
0:1:16.163,136.89,17.4299,0,0.000885,0,0
0:1:17.752,140.35,17.8712,0,0.000885,0,0
0:1:19.345,143.869,18.3194,0,0.000885,0,0
0:1:20.964,146.685,18.6779,0,0.000885,0,0
0:1:22.558,149.967,19.0916,0,0.000885,0,0
0:1:24.151,152.961,19.4777,0,0.000885,0,0
0:1:25.770,155.95,19.8569,0,0.000885,0,0
0:1:27.363,159.295,20.2844,0,0.000885,0,0
0:1:28.955,162.578,20.6981,0,0.000885,0,0
0:1:30.565,165.1,21.0221,0,0.000885,0,0
0:1:32.159,168.797,21.491,0,0.000885,0,0
0:1:33.753,171.199,21.8012,0,0.000885,0,0
0:1:35.363,174.659,22.2356,0,0.000885,0,0
0:1:36.965,177.947,22.6562,0,0.000885,0,0
0:1:38.559,180.82,23.0216,0,0.000885,0,0
0:1:40.169,184.161,23.4491,0,0.000885,0,0
0:1:41.768,187.212,23.8352,0,0.000885,0,0
0:1:43.358,190.379,24.242,0,0.000885,0,0
0:1:44.961,193.547,24.6419,0,0.000885,0,0
0:1:46.548,196.772,25.0555,0,0.000885,0,0
0:1:48.139,199.765,25.4348,0,0.000885,0,0
0:1:49.741,203.048,25.8553,0,0.000885,0,0
0:1:51.335,206.273,26.2621,0,0.000885,0,0
0:1:52.944,209.618,26.6896,0,0.000885,0,0
0:1:54.533,212.198,27.0206,0,0.000885,0,0
0:1:56.139,215.952,27.4963,0,0.000885,0,0
0:1:57.738,219.293,27.9238,0,0.000885,0,0
0:1:59.325,222.166,28.2892,0,0.000885,0,0
0:2:0.923,224.573,28.5926,0,0.000885,0,0
0:2:2.500,227.682,28.9925,0,0.000885,0,0
0:2:4.081,231.201,29.4406,0,0.000885,0,0
0:2:5.689,234.897,29.9095,0,0.000885,0,0
0:2:7.271,237.593,30.2542,0,0.000885,0,0
0:2:8.851,240.231,30.5851,0,0.000885,0,0
0:2:10.450,243.811,31.0402,0,0.000885,0,0
0:2:12.043,246.685,31.4056,0,0.000885,0,0
0:2:13.632,249.674,31.7917,0,0.000885,0,0
0:2:15.241,253.371,32.2606,0,0.000885,0,0
0:2:16.846,256.48,32.6536,0,0.000885,0,0
0:2:18.433,259.411,33.0259,0,0.000885,0,0
0:2:20.032,262.107,33.3706,0,0.000885,0,0
0:2:21.641,266.039,33.8739,0,0.000885,0,0
0:2:23.231,268.504,34.1842,0,0.000885,0,0
0:2:24.825,271.844,34.6117,0,0.000885,0,0
0:2:26.425,275.247,35.0461,0,0.000885,0,0
0:2:28.022,277.943,35.3908,0,0.000885,0,0
0:2:29.613,281.23,35.8045,0,0.000885,0,0
0:2:31.211,284.046,36.163,0,0.000885,0,0
0:2:32.794,288.031,36.6732,0,0.000885,0,0
0:2:34.383,290.553,36.9973,0,0.000885,0,0
0:2:35.981,293.547,37.3765,0,0.000885,0,0
0:2:37.561,296.363,37.735,0,0.000885,0,0
0:2:39.147,299.997,38.197,0,0.000885,0,0
0:2:40.749,303.106,38.59,0,0.000885,0,0
0:2:42.349,306.509,39.0243,0,0.000885,0,0
0:2:43.936,309.441,39.3966,0,0.000885,0,0
0:2:45.540,312.492,39.7896,0,0.000885,0,0
0:2:47.131,316.184,40.2585,0,0.000885,0,0
0:2:48.715,318.884,40.6032,0,0.000885,0,0
0:2:50.321,321.931,40.9893,0,0.000885,0,0
0:2:51.931,324.925,41.3685,0,0.000885,0,0
0:2:53.521,328.034,41.7684,0,0.000885,0,0
0:2:55.121,331.553,42.2166,0,0.000885,0,0
0:2:56.706,334.19,42.5475,0,0.000885,0,0
0:2:58.287,337.18,42.9337,0,0.000885,0,0
0:2:59.884,340.231,43.3198,0,0.000885,0,0
0:3:1.472,344.221,43.83,0,0.000885,0,0
0:3:3.053,347.326,44.223,0,0.000885,0,0
0:3:4.654,350.671,44.6504,0,0.000885,0,0
0:3:6.239,353.251,44.9745,0,0.000885,0,0
0:3:7.850,356.303,45.3675,0,0.000885,0,0
0:3:9.440,359.763,45.8088,0,0.000885,0,0
0:3:11.046,362.752,46.188,0,0.000885,0,0
0:3:12.632,365.51,46.5396,0,0.000885,0,0
0:3:14.217,369.145,47.0016,0,0.000885,0,0
0:3:15.815,371.902,47.3532,0,0.000885,0,0
0:3:17.397,375.421,47.8014,0,0.000885,0,0
0:3:18.984,377.707,48.0909,0,0.000885,0,0
0:3:20.583,380.995,48.5115,0,0.000885,0,0
0:3:22.174,384.277,48.9252,0,0.000885,0,0
0:3:23.756,388.032,49.4078,0,0.000885,0,0
0:3:25.362,390.438,49.7112,0,0.000885,0,0
0:3:26.954,393.837,50.1456,0,0.000885,0,0
0:3:28.543,396.71,50.511,0,0.000885,0,0
0:3:30.156,400.585,51.0005,0,0.000885,0,0
0:3:31.750,403.044,51.3177,0,0.000885,0,0
0:3:33.338,406.212,51.7176,0,0.000885,0,0
0:3:34.944,409.147,52.0968,0,0.000885,0,0
0:3:36.545,412.43,52.5105,0,0.000885,0,0
0:3:38.124,415.891,52.9517,0,0.000885,0,0
0:3:39.715,419.409,53.3999,0,0.000885,0,0
0:3:41.309,422.399,53.7791,0,0.000885,0,0
0:3:42.889,425.214,54.1376,0,0.000885,0,0
0:3:44.486,428.15,54.5168,0,0.000885,0,0
0:3:46.073,430.788,54.8478,0,0.000885,0,0
0:3:47.653,434.191,55.2822,0,0.000885,0,0
0:3:49.252,438.061,55.7786,0,0.000885,0,0
0:3:50.859,441.522,56.213,0,0.000885,0,0
0:3:52.447,444.689,56.6197,0,0.000885,0,0
0:3:54.028,447.62,56.9921,0,0.000885,0,0
0:3:55.634,449.906,57.2816,0,0.000885,0,0
0:3:57.215,452.9,57.6677,0,0.000885,0,0
0:3:58.799,456.654,58.1435,0,0.000885,0,0
0:4:0.402,459.644,58.5227,0,0.000885,0,0
0:4:1.982,462.459,58.8812,0,0.000885,0,0
0:4:3.561,465.626,59.288,0,0.000885,0,0
0:4:5.170,468.616,59.6672,0,0.000885,0,0
0:4:6.749,472.548,60.1637,0,0.000885,0,0
0:4:8.341,475.128,60.4946,0,0.000885,0,0
0:4:9.940,478.882,60.9703,0,0.000885,0,0
0:4:11.538,481.462,61.3013,0,0.000885,0,0
0:4:13.146,484.629,61.7081,0,0.000885,0,0
0:4:14.760,487.681,62.0942,0,0.000885,0,0
0:4:16.359,490.728,62.4803,0,0.000885,0,0
0:4:17.939,493.895,62.8871,0,0.000885,0,0
0:4:19.557,496.711,63.2456,0,0.000885,0,0
0:4:21.142,498.939,63.5283,0,0.000885,0,0
0:4:22.723,502.929,64.0316,0,0.000885,0,0
0:4:24.314,506.506,64.4936,0,0.000885,0,0
0:4:25.913,510.554,65.0038,0,0.000885,0,0
0:4:27.493,513.721,65.4106,0,0.000885,0,0
0:4:29.083,516.416,65.7553,0,0.000885,0,0
0:4:30.677,518.765,66.0518,0,0.000885,0,0
0:4:32.255,522.163,66.4861,0,0.000885,0,0
0:4:33.864,525.566,66.9205,0,0.000885,0,0
0:4:35.462,528.791,67.3273,0,0.000885,0,0
0:4:37.061,532.021,67.741,0,0.000885,0,0
0:4:38.661,534.481,68.0513,0,0.000885,0,0
0:4:40.265,537.883,68.4856,0,0.000885,0,0
0:4:41.861,540.993,68.8786,0,0.000885,0,0
0:4:43.460,543.751,69.2303,0,0.000885,0,0
0:4:45.067,547.385,69.6922,0,0.000885,0,0
0:4:46.660,550.61,70.1059,0,0.000885,0,0
0:4:48.259,553.955,70.5334,0,0.000885,0,0
0:4:49.860,556.593,70.8643,0,0.000885,0,0
0:4:51.443,560.169,71.3263,0,0.000885,0,0
0:4:53.043,563.105,71.6986,0,0.000885,0,0
0:4:54.639,566.152,72.0847,0,0.000885,0,0
0:4:56.259,569.733,72.5397,0,0.000885,0,0
0:4:57.860,572.722,72.919,0,0.000885,0,0
0:4:59.468,575.711,73.3051,0,0.000885,0,0
0:5:1.057,578.878,73.705,0,0.000885,0,0
0:5:2.658,581.988,74.098,0,0.000885,0,0
0:5:4.271,585.039,74.491,0,0.000885,0,0
0:5:5.859,588.558,74.9391,0,0.000885,0,0
0:5:7.453,591.2,75.277,0,0.000885,0,0
0:5:9.070,594.661,75.7113,0,0.000885,0,0
0:5:10.673,597.423,76.063,0,0.000885,0,0
0:5:12.261,600.59,76.4698,0,0.000885,0,0
0:5:13.870,603.704,76.8628,0,0.000885,0,0
0:5:15.475,607.049,77.2902,0,0.000885,0,0
0:5:17.061,609.571,77.6143,0,0.000885,0,0
0:5:18.668,613.036,78.0555,0,0.000885,0,0
0:5:20.275,616.555,78.5037,0,0.000885,0,0
0:5:21.864,619.49,78.876,0,0.000885,0,0
0:5:23.460,622.778,79.2966,0,0.000885,0,0
0:5:25.074,626.479,79.7654,0,0.000885,0,0
0:5:26.662,628.765,80.055,0,0.000885,0,0
0:5:28.272,632.346,80.5101,0,0.000885,0,0
0:5:29.878,635.397,80.9031,0,0.000885,0,0
0:5:31.472,638.217,81.2616,0,0.000885,0,0
0:5:33.067,641.914,81.7305,0,0.000885,0,0
0:5:34.676,644.672,82.0821,0,0.000885,0,0
0:5:36.263,647.901,82.4958,0,0.000885,0,0
0:5:37.861,650.779,82.8612,0,0.000885,0,0
0:5:39.478,654.596,83.3438,0,0.000885,0,0
0:5:41.073,657.469,83.7092,0,0.000885,0,0
0:5:42.669,660.521,84.1022,0,0.000885,0,0
0:5:44.277,663.577,84.4884,0,0.000885,0,0
0:5:45.880,667.038,84.9296,0,0.000885,0,0
0:5:47.467,669.68,85.2675,0,0.000885,0,0
0:5:49.076,673.261,85.7225,0,0.000885,0,0
0:5:50.673,676.018,86.0741,0,0.000885,0,0
0:5:52.270,679.364,86.5016,0,0.000885,0,0
0:5:53.875,682.184,86.8602,0,0.000885,0,0
0:5:55.478,685.529,87.2807,0,0.000885,0,0
0:5:57.066,688.696,87.6875,0,0.000885,0,0
0:5:58.671,691.632,88.0598,0,0.000885,0,0
0:6:0.286,695.27,88.5218,0,0.000885,0,0
0:6:1.873,697.739,88.8389,0,0.000885,0,0
0:6:3.469,701.2,89.2802,0,0.000885,0,0
0:6:5.079,704.429,89.6939,0,0.000885,0,0
0:6:6.667,707.423,90.0731,0,0.000885,0,0
0:6:8.266,710.826,90.5075,0,0.000885,0,0
0:6:9.881,714.055,90.9143,0,0.000885,0,0
0:6:11.467,716.813,91.2659,0,0.000885,0,0
0:6:13.073,719.162,91.5693,0,0.000885,0,0
0:6:14.680,723.036,92.0588,0,0.000885,0,0
0:6:16.270,726.088,92.4518,0,0.000885,0,0
0:6:17.865,727.089,92.5759,0,0.000885,0,0
0:6:19.479,635.753,80.9445,0,0.000885,0,0
0:6:21.072,623.543,79.3931,0,0.000885,0,0
0:6:22.675,614.735,78.2693,0,0.000885,0,0
0:6:24.280,601.293,76.5594,0,0.000885,0,0
0:6:25.871,573.545,73.0224,0,0.000885,0,0
0:6:26.068,565.276,71.9744,0,0.000885,0,0