File: DataFile2021-06-07_071657.csv
Test ID:,Date Tested:,Time:,Test Type:,Diameter Avg. (mm):,Cyl. Corr. Factor:,Height (mm):,Age (days):,Weight (kN):,Break Type:,Ramp Rate (MPa/s):,Load at Break (kN):,Stress at Break (MPa):
12,6/7/2021,07:16,Cylinder,100,1,200,0,3.6,3,0.25,590.79,75.22
Sample Time,Load (kN),Stress (MPa),Long. Strain,Trans. Strain,Chan1 Deflection (mm),Chan2 Deflection (mm)
0:0:17.732,5.04428,0.641212,0,0.000885,0,0
0:0:19.022,9.14999,1.16521,0,0.000885,0,0
0:0:20.307,9.61706,1.22727,0,0.000885,0,0
0:0:21.597,11.7878,1.50306,0,0.000885,0,0
0:0:22.889,14.6035,1.86158,0,0.000885,0,0
0:0:24.203,18.2422,2.32353,0,0.000885,0,0
0:0:25.500,20.4707,2.60622,0,0.000885,0,0
0:0:26.798,22.8149,2.90269,0,0.000885,0,0
0:0:28.094,25.5728,3.25433,0,0.000885,0,0
0:0:29.410,27.6813,3.52322,0,0.000885,0,0
0:0:30.701,30.1456,3.84038,0,0.000885,0,0
0:0:31.997,33.3127,4.24028,0,0.000885,0,0
0:0:33.299,35.4835,4.51607,0,0.000885,0,0
0:0:34.611,38.4148,4.88838,0,0.000885,0,0
0:0:35.905,40.7635,5.19175,0,0.000885,0,0
0:0:37.198,43.6371,5.55717,0,0.000885,0,0
0:0:38.502,45.5142,5.7916,0,0.000885,0,0
0:0:39.810,48.4456,6.17081,0,0.000885,0,0
0:0:41.108,51.2035,6.52244,0,0.000885,0,0
0:0:42.399,53.5477,6.81891,0,0.000885,0,0
0:0:43.707,55.7763,7.1016,0,0.000885,0,0
0:0:45.013,58.7076,7.47392,0,0.000885,0,0
0:0:46.308,61.2876,7.80487,0,0.000885,0,0
0:0:47.602,63.5784,8.09445,0,0.000885,0,0
0:0:48.910,66.5676,8.47366,0,0.000885,0,0
0:0:50.218,69.4412,8.83908,0,0.000885,0,0
0:0:51.510,71.1449,9.05971,0,0.000885,0,0
0:0:52.808,73.5469,9.36308,0,0.000885,0,0
0:0:54.117,76.5984,9.75608,0,0.000885,0,0
0:0:55.419,78.9426,10.0526,0,0.000885,0,0
0:0:56.712,81.229,10.3421,0,0.000885,0,0
0:0:58.006,83.929,10.6869,0,0.000885,0,0
0:0:59.322,87.0962,11.0868,0,0.000885,0,0
0:1:0.619,89.2091,11.3557,0,0.000885,0,0
0:1:1.914,92.3762,11.7625,0,0.000885,0,0
0:1:3.213,93.7819,11.9417,0,0.000885,0,0
0:1:4.528,97.2426,12.383,0,0.000885,0,0
0:1:5.819,99.8804,12.7139,0,0.000885,0,0
0:1:7.118,101.815,12.9621,0,0.000885,0,0
0:1:8.417,104.28,13.2793,0,0.000885,0,0
0:1:9.728,107.095,13.6378,0,0.000885,0,0
0:1:11.019,109.618,13.955,0,0.000885,0,0
0:1:12.316,112.255,14.2928,0,0.000885,0,0
0:1:13.615,114.075,14.5273,0,0.000885,0,0
0:1:14.929,117.829,15.003,0,0.000885,0,0
0:1:16.222,120,15.2788,0,0.000885,0,0
0:1:17.514,122.344,15.5753,0,0.000885,0,0
0:1:18.825,125.044,15.92,0,0.000885,0,0
0:1:20.124,127.215,16.1958,0,0.000885,0,0
0:1:21.419,130.382,16.6026,0,0.000885,0,0
0:1:22.708,132.197,16.8301,0,0.000885,0,0
0:1:24.024,135.012,17.1886,0,0.000885,0,0
0:1:25.323,138.18,17.5954,0,0.000885,0,0
0:1:26.617,139.705,17.7885,0,0.000885,0,0
0:1:27.908,143.224,18.2366,0,0.000885,0,0
0:1:29.223,145.337,18.5055,0,0.000885,0,0
0:1:30.518,148.032,18.8503,0,0.000885,0,0
0:1:31.814,150.906,19.2157,0,0.000885,0,0
0:1:33.104,153.428,19.5328,0,0.000885,0,0
0:1:34.421,156.012,19.8638,0,0.000885,0,0
0:1:35.717,158.766,20.2154,0,0.000885,0,0
0:1:37.010,161.115,20.5119,0,0.000885,0,0
0:1:38.310,163.165,20.7739,0,0.000885,0,0
0:1:39.620,165.158,21.029,0,0.000885,0,0
0:1:40.911,168.561,21.4634,0,0.000885,0,0
0:1:42.202,170.91,21.7599,0,0.000885,0,0
0:1:43.505,173.605,22.1046,0,0.000885,0,0
0:1:44.814,176.421,22.4631,0,0.000885,0,0
0:1:46.108,178.12,22.6769,0,0.000885,0,0
0:1:47.398,180.878,23.0285,0,0.000885,0,0
0:1:48.704,183.578,23.3732,0,0.000885,0,0
0:1:50.010,186.274,23.718,0,0.000885,0,0
0:1:51.304,189.032,24.0696,0,0.000885,0,0
0:1:52.593,191.434,24.373,0,0.000885,0,0
0:1:53.902,193.604,24.6488,0,0.000885,0,0
0:1:55.191,197.007,25.0831,0,0.000885,0,0
0:1:56.474,199.236,25.3658,0,0.000885,0,0
0:1:57.784,202.052,25.7243,0,0.000885,0,0
0:1:59.090,204.396,26.0277,0,0.000885,0,0
0:2:0.378,206.393,26.2759,0,0.000885,0,0
0:2:1.684,209.498,26.6758,0,0.000885,0,0
0:2:2.984,211.553,26.9378,0,0.000885,0,0
0:2:4.291,214.369,27.2963,0,0.000885,0,0
0:2:5.578,216.949,27.6204,0,0.000885,0,0
0:2:6.880,219.351,27.9307,0,0.000885,0,0
0:2:8.173,221.815,28.2409,0,0.000885,0,0
0:2:9.481,224.751,28.6132,0,0.000885,0,0
0:2:10.781,227.211,28.9304,0,0.000885,0,0
0:2:12.080,229.969,29.282,0,0.000885,0,0
0:2:13.375,232.255,29.5716,0,0.000885,0,0
0:2:14.683,234.252,29.8267,0,0.000885,0,0
0:2:15.985,237.357,30.2197,0,0.000885,0,0
0:2:17.281,240.409,30.6127,0,0.000885,0,0
0:2:18.588,242.401,30.8609,0,0.000885,0,0
0:2:19.882,244.514,31.1298,0,0.000885,0,0
0:2:21.184,247.917,31.5642,0,0.000885,0,0
0:2:22.468,249.968,31.8262,0,0.000885,0,0
0:2:23.779,253.077,32.2261,0,0.000885,0,0
0:2:25.080,254.776,32.4398,0,0.000885,0,0
0:2:26.385,257.712,32.8121,0,0.000885,0,0
0:2:27.665,260.292,33.1431,0,0.000885,0,0
0:2:28.968,262.694,33.4465,0,0.000885,0,0
0:2:30.266,265.158,33.7636,0,0.000885,0,0
0:2:31.583,267.387,34.0463,0,0.000885,0,0
0:2:32.870,270.381,34.4255,0,0.000885,0,0
0:2:34.176,273.134,34.7772,0,0.000885,0,0
0:2:35.463,274.838,34.9909,0,0.000885,0,0
0:2:36.769,278.53,35.4666,0,0.000885,0,0
0:2:38.057,280.407,35.7011,0,0.000885,0,0
0:2:39.363,282.52,35.9699,0,0.000885,0,0
0:2:40.660,286.39,36.4664,0,0.000885,0,0
0:2:41.946,288.031,36.6732,0,0.000885,0,0
0:2:43.235,291.025,37.0524,0,0.000885,0,0
0:2:44.540,293.076,37.3144,0,0.000885,0,0
0:2:45.821,295.655,37.6454,0,0.000885,0,0
0:2:47.107,298.356,37.9901,0,0.000885,0,0
0:2:48.398,300.936,38.3142,0,0.000885,0,0
0:2:49.701,303.106,38.59,0,0.000885,0,0
0:2:50.982,305.864,38.9416,0,0.000885,0,0
0:2:52.267,308.151,39.2381,0,0.000885,0,0
0:2:53.566,311.14,39.6173,0,0.000885,0,0
0:2:54.877,313.898,39.9689,0,0.000885,0,0
0:2:56.163,316.829,40.3412,0,0.000885,0,0
0:2:57.447,318.297,40.5274,0,0.000885,0,0
0:2:58.748,321.406,40.9204,0,0.000885,0,0
0:3:0.039,323.635,41.2031,0,0.000885,0,0
0:3:1.322,326.566,41.5823,0,0.000885,0,0
0:3:2.608,329.262,41.9201,0,0.000885,0,0
0:3:3.908,331.49,42.2097,0,0.000885,0,0
0:3:5.199,334.306,42.5682,0,0.000885,0,0
0:3:6.493,336.303,42.8164,0,0.000885,0,0
0:3:7.775,339.47,43.2232,0,0.000885,0,0
0:3:9.075,341.405,43.4714,0,0.000885,0,0
0:3:10.386,343.75,43.7679,0,0.000885,0,0
0:3:11.692,346.623,44.1333,0,0.000885,0,0
0:3:12.993,349.203,44.4643,0,0.000885,0,0
0:3:14.293,352.255,44.8504,0,0.000885,0,0
0:3:15.587,354.425,45.1262,0,0.000885,0,0
0:3:16.877,355.893,45.3123,0,0.000885,0,0
0:3:18.171,359.763,45.8088,0,0.000885,0,0
0:3:19.477,361.347,46.0087,0,0.000885,0,0
0:3:20.788,364.923,46.4638,0,0.000885,0,0
0:3:22.075,367.21,46.7533,0,0.000885,0,0
0:3:23.374,368.793,46.9533,0,0.000885,0,0
0:3:24.680,371.96,47.3601,0,0.000885,0,0
0:3:25.977,374.66,47.7048,0,0.000885,0,0
0:3:27.270,376.538,47.9392,0,0.000885,0,0
0:3:28.565,379.353,48.2978,0,0.000885,0,0
0:3:29.862,381.933,48.6287,0,0.000885,0,0
0:3:31.147,383.69,48.8563,0,0.000885,0,0
0:3:32.434,386.448,49.201,0,0.000885,0,0
0:3:33.733,388.735,49.4975,0,0.000885,0,0
0:3:35.027,391.199,49.8077,0,0.000885,0,0
0:3:36.307,392.898,50.0284,0,0.000885,0,0
0:3:37.593,394.424,50.2214,0,0.000885,0,0
0:3:38.901,396.007,50.4214,0,0.000885,0,0
0:3:40.189,396.71,50.511,0,0.000885,0,0
0:3:41.496,393.779,50.1387,0,0.000885,0,0
0:3:42.790,384.398,48.9459,0,0.000885,0,0
0:3:44.092,377.062,48.0082,0,0.000885,0,0
0:3:45.374,377.183,48.022,0,0.000885,0,0
0:3:46.653,381.404,48.5598,0,0.000885,0,0
0:3:47.938,386.626,49.2286,0,0.000885,0,0
0:3:49.242,393.076,50.049,0,0.000885,0,0
0:3:50.528,399.646,50.8833,0,0.000885,0,0
0:3:51.810,406.919,51.8072,0,0.000885,0,0
0:3:53.111,413.836,52.6897,0,0.000885,0,0
0:3:54.406,422.047,53.7377,0,0.000885,0,0
0:3:55.692,429.44,54.6754,0,0.000885,0,0
0:3:56.973,437.652,55.7234,0,0.000885,0,0
0:3:58.273,442.754,56.3715,0,0.000885,0,0
0:3:59.579,446.682,56.8749,0,0.000885,0,0
0:4:0.882,448.207,57.0679,0,0.000885,0,0
0:4:2.185,448.265,57.0748,0,0.000885,0,0
0:4:3.482,448.794,57.1437,0,0.000885,0,0
0:4:4.777,450.787,57.3989,0,0.000885,0,0
0:4:6.059,453.252,57.7091,0,0.000885,0,0
0:4:7.346,455.364,57.978,0,0.000885,0,0
0:4:8.654,458.002,58.3159,0,0.000885,0,0
0:4:9.941,460.524,58.633,0,0.000885,0,0
0:4:11.224,463.34,58.9915,0,0.000885,0,0
0:4:12.509,466.214,59.357,0,0.000885,0,0
0:4:13.814,468.972,59.7086,0,0.000885,0,0
0:4:15.103,471.667,60.0533,0,0.000885,0,0
0:4:16.394,473.722,60.3153,0,0.000885,0,0
0:4:17.688,475.889,60.5911,0,0.000885,0,0
0:4:18.995,479.118,61.0048,0,0.000885,0,0
0:4:20.282,481.929,61.3633,0,0.000885,0,0
0:4:21.591,483.575,61.5702,0,0.000885,0,0
0:4:22.887,485.977,61.8736,0,0.000885,0,0
0:4:24.194,488.971,62.2597,0,0.000885,0,0
0:4:25.489,491.199,62.5423,0,0.000885,0,0
0:4:26.790,493.779,62.8664,0,0.000885,0,0
0:4:28.099,496.537,63.218,0,0.000885,0,0
0:4:29.395,499.411,63.5835,0,0.000885,0,0
0:4:30.699,502.164,63.9351,0,0.000885,0,0
0:4:31.979,504.099,64.1833,0,0.000885,0,0
0:4:33.279,506.857,64.5349,0,0.000885,0,0
0:4:34.584,509.321,64.8521,0,0.000885,0,0
0:4:35.878,511.492,65.1279,0,0.000885,0,0
0:4:37.183,514.539,65.514,0,0.000885,0,0
0:4:38.481,516.652,65.7829,0,0.000885,0,0
0:4:39.779,518.881,66.0656,0,0.000885,0,0
0:4:41.061,522.341,66.5068,0,0.000885,0,0
0:4:42.348,524.628,66.7964,0,0.000885,0,0
0:4:43.653,527.208,67.1274,0,0.000885,0,0
0:4:44.944,529.556,67.4238,0,0.000885,0,0
0:4:46.225,532.488,67.7961,0,0.000885,0,0
0:4:47.509,534.423,68.0444,0,0.000885,0,0
0:4:48.816,537.181,68.396,0,0.000885,0,0
0:4:50.105,539.703,68.72,0,0.000885,0,0
0:4:51.395,542.398,69.0579,0,0.000885,0,0
0:4:52.692,545.098,69.4026,0,0.000885,0,0
0:4:54.000,547.443,69.706,0,0.000885,0,0
0:4:55.286,550.023,70.03,0,0.000885,0,0
0:4:56.587,552.665,70.3679,0,0.000885,0,0
0:4:57.885,555.067,70.6713,0,0.000885,0,0
0:4:59.197,558.296,71.0849,0,0.000885,0,0
0:5:0.500,560.289,71.3401,0,0.000885,0,0
0:5:1.798,562.398,71.6089,0,0.000885,0,0
0:5:3.105,565.507,72.002,0,0.000885,0,0
0:5:4.400,567.913,72.3122,0,0.000885,0,0
0:5:5.689,570.315,72.6156,0,0.000885,0,0
0:5:6.988,573.193,72.981,0,0.000885,0,0
0:5:8.299,575.422,73.2637,0,0.000885,0,0
0:5:9.590,577.824,73.574,0,0.000885,0,0
0:5:10.872,580.818,73.9532,0,0.000885,0,0
0:5:12.160,582.868,74.2152,0,0.000885,0,0
0:5:13.460,582.926,74.2221,0,0.000885,0,0
0:5:14.751,587.325,74.7805,0,0.000885,0,0
0:5:16.037,590.319,75.1597,0,0.000885,0,0
0:5:17.326,588.909,74.9805,0,0.000885,0,0
0:5:17.967,478.94,60.9772,0,0.000885,0,0