File: DataFile2021-06-29_060423.csv
Test ID:,Date Tested:,Time:,Test Type:,Diameter Avg. (mm):,Cyl. Corr. Factor:,Height (mm):,Age (days):,Weight (kN):,Break Type:,Ramp Rate (MPa/s):,Load at Break (kN):,Stress at Break (MPa):
12,6/29/2021,06:04,Cylinder,100,1,200,0,3.6,3,0.24,336.95,42.9
Sample Time,Load (kN),Stress (MPa),Long. Strain,Trans. Strain,Chan1 Deflection (mm),Chan2 Deflection (mm)
0:0:21.058,6.15634,0.786002,0,0.000885,0,0
0:0:21.857,13.7228,1.74437,0,0.000885,0,0
0:0:22.648,12.6107,1.60648,0,0.000885,0,0
0:0:23.442,12.5529,1.59958,0,0.000885,0,0
0:0:24.233,12.4328,1.58579,0,0.000885,0,0
0:0:25.028,12.9621,1.64785,0,0.000885,0,0
0:0:25.821,13.3135,1.69611,0,0.000885,0,0
0:0:26.618,14.3678,1.82711,0,0.000885,0,0
0:0:27.426,16.7742,2.13737,0,0.000885,0,0
0:0:28.228,19.3542,2.46143,0,0.000885,0,0
0:0:29.025,21.2314,2.70274,0,0.000885,0,0
0:0:29.817,22.9306,2.91648,0,0.000885,0,0
0:0:30.616,24.4563,3.11643,0,0.000885,0,0
0:0:31.404,25.9242,3.30259,0,0.000885,0,0
0:0:32.219,27.1564,3.45427,0,0.000885,0,0
0:0:33.025,28.3886,3.61285,0,0.000885,0,0
0:0:33.821,29.6785,3.77833,0,0.000885,0,0
0:0:34.618,31.5557,4.01964,0,0.000885,0,0
0:0:35.412,33.4328,4.25407,0,0.000885,0,0
0:0:36.212,35.5413,4.52296,0,0.000885,0,0
0:0:37.021,36.9514,4.70222,0,0.000885,0,0
0:0:37.828,38.1835,4.8608,0,0.000885,0,0
0:0:38.621,39.4735,5.02628,0,0.000885,0,0
0:0:39.420,41.0571,5.22623,0,0.000885,0,0
0:0:40.216,42.9921,5.47444,0,0.000885,0,0
0:0:41.010,44.8692,5.71575,0,0.000885,0,0
0:0:41.827,46.6263,5.93639,0,0.000885,0,0
0:0:42.634,47.7428,6.08118,0,0.000885,0,0
0:0:43.433,49.0327,6.23976,0,0.000885,0,0
0:0:44.227,50.3806,6.41212,0,0.000885,0,0
0:0:45.028,51.9641,6.61897,0,0.000885,0,0
0:0:45.819,53.7256,6.8396,0,0.000885,0,0
0:0:46.620,55.5405,7.07402,0,0.000885,0,0
0:0:47.429,57.2442,7.28776,0,0.000885,0,0
0:0:48.233,58.7699,7.48081,0,0.000885,0,0
0:0:49.029,59.704,7.60492,0,0.000885,0,0
0:0:49.824,61.8748,7.88071,0,0.000885,0,0
0:0:50.621,63.9298,8.14271,0,0.000885,0,0
0:0:51.423,65.2198,8.30129,0,0.000885,0,0
0:0:52.232,66.2741,8.43918,0,0.000885,0,0
0:0:53.030,67.564,8.60466,0,0.000885,0,0
0:0:53.828,69.2054,8.8115,0,0.000885,0,0
0:0:54.622,70.789,9.01145,0,0.000885,0,0
0:0:55.419,73.1377,9.31482,0,0.000885,0,0
0:0:56.212,74.2497,9.45271,0,0.000885,0,0
0:0:57.022,75.424,9.6044,0,0.000885,0,0
0:0:57.829,77.6526,9.88708,0,0.000885,0,0
0:0:58.622,79.3563,10.1008,0,0.000885,0,0
0:0:59.422,80.4105,10.2387,0,0.000885,0,0
0:1:0.214,82.0519,10.4456,0,0.000885,0,0
0:1:1.013,83.6933,10.6593,0,0.000885,0,0
0:1:1.825,84.9254,10.811,0,0.000885,0,0
0:1:2.632,86.9183,11.0661,0,0.000885,0,0
0:1:3.431,88.9733,11.3281,0,0.000885,0,0
0:1:4.228,90.0854,11.4729,0,0.000885,0,0
0:1:5.024,91.6111,11.6659,0,0.000885,0,0
0:1:5.819,92.6075,11.79,0,0.000885,0,0
0:1:6.618,94.5425,12.0382,0,0.000885,0,0
0:1:7.427,96.5398,12.2934,0,0.000885,0,0
0:1:8.233,98.239,12.5071,0,0.000885,0,0
0:1:9.027,99.0041,12.6036,0,0.000885,0,0
0:1:9.824,101.17,12.8794,0,0.000885,0,0
0:1:10.620,102.46,13.0449,0,0.000885,0,0
0:1:11.421,103.87,13.2241,0,0.000885,0,0
0:1:12.231,106.041,13.4999,0,0.000885,0,0
0:1:13.030,107.153,13.6447,0,0.000885,0,0
0:1:13.831,108.737,13.8447,0,0.000885,0,0
0:1:14.624,110.44,14.0584,0,0.000885,0,0
0:1:15.422,111.904,14.2515,0,0.000885,0,0
0:1:16.216,113.901,14.4997,0,0.000885,0,0
0:1:17.026,115.6,14.7203,0,0.000885,0,0
0:1:17.831,116.655,14.8513,0,0.000885,0,0
0:1:18.626,118.474,15.0857,0,0.000885,0,0
0:1:19.424,119.706,15.2443,0,0.000885,0,0
0:1:20.217,121.112,15.4236,0,0.000885,0,0
0:1:21.017,122.873,15.6442,0,0.000885,0,0
0:1:21.827,124.63,15.8717,0,0.000885,0,0
0:1:22.635,126.04,16.051,0,0.000885,0,0
0:1:23.433,127.74,16.2647,0,0.000885,0,0
0:1:24.230,128.62,16.375,0,0.000885,0,0
0:1:25.026,130.965,16.6784,0,0.000885,0,0
0:1:25.819,132.197,16.8301,0,0.000885,0,0
0:1:26.628,133.78,17.0369,0,0.000885,0,0
0:1:27.435,135.306,17.23,0,0.000885,0,0
0:1:28.235,137.592,17.5196,0,0.000885,0,0
0:1:29.028,138.415,17.623,0,0.000885,0,0
0:1:29.825,140.115,17.8367,0,0.000885,0,0
0:1:30.618,141.876,18.0643,0,0.000885,0,0
0:1:31.418,143.695,18.2987,0,0.000885,0,0
0:1:32.227,144.865,18.4435,0,0.000885,0,0
0:1:33.029,146.275,18.6227,0,0.000885,0,0
0:1:33.828,148.384,18.8916,0,0.000885,0,0
0:1:34.621,149.558,19.0433,0,0.000885,0,0
0:1:35.419,151.671,19.3122,0,0.000885,0,0
0:1:36.208,152.961,19.4777,0,0.000885,0,0
0:1:37.020,154.429,19.6638,0,0.000885,0,0
0:1:37.827,156.422,19.919,0,0.000885,0,0
0:1:38.625,157.418,20.0431,0,0.000885,0,0
0:1:39.419,159.237,20.2775,0,0.000885,0,0
0:1:40.224,160.292,20.4085,0,0.000885,0,0
0:1:41.022,162.284,20.6636,0,0.000885,0,0
0:1:41.821,163.695,20.8429,0,0.000885,0,0
0:1:42.629,165.336,21.0497,0,0.000885,0,0
0:1:43.429,166.804,21.2359,0,0.000885,0,0
0:1:44.232,169.032,21.5185,0,0.000885,0,0
0:1:45.023,169.851,21.6289,0,0.000885,0,0
0:1:45.821,171.492,21.8357,0,0.000885,0,0
0:1:46.625,173.312,22.0701,0,0.000885,0,0
0:1:47.433,174.895,22.2701,0,0.000885,0,0
0:1:48.231,176.185,22.4355,0,0.000885,0,0
0:1:49.025,178.062,22.67,0,0.000885,0,0
0:1:49.822,178.765,22.7596,0,0.000885,0,0
0:1:50.625,180.936,23.0354,0,0.000885,0,0
0:1:51.423,182.346,23.2146,0,0.000885,0,0
0:1:52.233,184.281,23.4629,0,0.000885,0,0
0:1:53.038,185.571,23.6283,0,0.000885,0,0
0:1:53.833,187.448,23.8696,0,0.000885,0,0
0:1:54.629,188.974,24.0627,0,0.000885,0,0
0:1:55.425,191.082,24.3316,0,0.000885,0,0
0:1:56.219,191.847,24.4281,0,0.000885,0,0
0:1:57.023,193.489,24.635,0,0.000885,0,0
0:1:57.823,194.837,24.8073,0,0.000885,0,0
0:1:58.617,196.829,25.0624,0,0.000885,0,0
0:1:59.413,198.297,25.2486,0,0.000885,0,0
0:2:0.204,199.645,25.421,0,0.000885,0,0
0:2:1.004,201.464,25.6485,0,0.000885,0,0
0:2:1.809,203.164,25.8691,0,0.000885,0,0
0:2:2.609,205.041,26.1036,0,0.000885,0,0
0:2:3.419,206.86,26.338,0,0.000885,0,0
0:2:4.208,207.914,26.4759,0,0.000885,0,0
0:2:5.014,209.382,26.662,0,0.000885,0,0
0:2:5.820,210.788,26.8413,0,0.000885,0,0
0:2:6.614,212.14,27.0137,0,0.000885,0,0
0:2:7.420,213.897,27.2343,0,0.000885,0,0
0:2:8.224,215.832,27.4825,0,0.000885,0,0
0:2:9.014,216.655,27.5859,0,0.000885,0,0
0:2:9.818,218.59,27.8341,0,0.000885,0,0
0:2:10.625,220.703,28.103,0,0.000885,0,0
0:2:11.418,221.642,28.2202,0,0.000885,0,0
0:2:12.221,223.986,28.5167,0,0.000885,0,0
0:2:13.022,225.334,28.6891,0,0.000885,0,0
0:2:13.819,226.392,28.827,0,0.000885,0,0
0:2:14.608,227.446,28.958,0,0.000885,0,0
0:2:15.410,229.733,29.2476,0,0.000885,0,0
0:2:16.219,231.085,29.4199,0,0.000885,0,0
0:2:17.023,232.375,29.5854,0,0.000885,0,0
0:2:17.824,234.368,29.8405,0,0.000885,0,0
0:2:18.615,236.125,30.068,0,0.000885,0,0
0:2:19.414,237.535,30.2404,0,0.000885,0,0
0:2:20.215,239.292,30.4679,0,0.000885,0,0
0:2:21.026,240.524,30.6265,0,0.000885,0,0
0:2:21.823,242.05,30.8196,0,0.000885,0,0
0:2:22.625,243.749,31.0333,0,0.000885,0,0
0:2:23.421,245.337,31.2401,0,0.000885,0,0
0:2:24.223,246.627,31.3987,0,0.000885,0,0
0:2:25.022,248.62,31.6538,0,0.000885,0,0
0:2:25.811,250.204,31.8538,0,0.000885,0,0
0:2:26.612,251.903,32.0744,0,0.000885,0,0
0:2:27.415,252.841,32.1916,0,0.000885,0,0
0:2:28.219,254.251,32.3709,0,0.000885,0,0
0:2:29.017,256.302,32.6329,0,0.000885,0,0
0:2:29.820,257.65,32.8053,0,0.000885,0,0
0:2:30.620,259.296,33.0121,0,0.000885,0,0
0:2:31.414,261.289,33.2672,0,0.000885,0,0
0:2:32.216,262.049,33.3637,0,0.000885,0,0
0:2:33.022,264.456,33.674,0,0.000885,0,0
0:2:33.814,265.336,33.7843,0,0.000885,0,0
0:2:34.610,267.036,33.998,0,0.000885,0,0
0:2:35.412,268.504,34.1842,0,0.000885,0,0
0:2:36.225,270.79,34.4807,0,0.000885,0,0
0:2:37.030,272.253,34.6668,0,0.000885,0,0
0:2:37.829,273.606,34.8392,0,0.000885,0,0
0:2:38.627,274.838,34.9909,0,0.000885,0,0
0:2:39.418,276.715,35.2322,0,0.000885,0,0
0:2:40.214,278.236,35.4253,0,0.000885,0,0
0:2:41.015,279.94,35.6459,0,0.000885,0,0
0:2:41.827,281.23,35.8045,0,0.000885,0,0
0:2:42.628,282.813,36.0113,0,0.000885,0,0
0:2:43.422,284.046,36.163,0,0.000885,0,0
0:2:44.227,285.509,36.3492,0,0.000885,0,0
0:2:45.022,286.332,36.4595,0,0.000885,0,0
0:2:45.828,287.916,36.6594,0,0.000885,0,0
0:2:46.621,289.384,36.8456,0,0.000885,0,0
0:2:47.426,291.025,37.0524,0,0.000885,0,0
0:2:48.224,292.666,37.2662,0,0.000885,0,0
0:2:49.025,294.072,37.4454,0,0.000885,0,0
0:2:49.822,295.54,37.6316,0,0.000885,0,0
0:2:50.612,297.008,37.8177,0,0.000885,0,0
0:2:51.416,298.943,38.0591,0,0.000885,0,0
0:2:52.222,301.816,38.4314,0,0.000885,0,0
0:2:53.025,303.867,38.6865,0,0.000885,0,0
0:2:53.828,305.744,38.9278,0,0.000885,0,0
0:2:54.614,307.915,39.2036,0,0.000885,0,0
0:2:55.415,309.614,39.4242,0,0.000885,0,0
0:2:56.203,311.433,39.6517,0,0.000885,0,0
0:2:57.006,312.665,39.8103,0,0.000885,0,0
0:2:57.810,314.076,39.9896,0,0.000885,0,0
0:2:58.628,314.836,40.0861,0,0.000885,0,0
0:2:59.418,316.242,40.2654,0,0.000885,0,0
0:3:0.226,317.358,40.4102,0,0.000885,0,0
0:3:1.029,318.591,40.5619,0,0.000885,0,0
0:3:1.825,319.529,40.686,0,0.000885,0,0
0:3:2.625,320.526,40.8101,0,0.000885,0,0
0:3:3.430,322.283,41.0376,0,0.000885,0,0
0:3:4.219,324.453,41.3134,0,0.000885,0,0
0:3:5.012,326.624,41.5892,0,0.000885,0,0
0:3:5.809,329.204,41.9132,0,0.000885,0,0
0:3:6.624,330.908,42.1339,0,0.000885,0,0
0:3:7.429,332.723,42.3614,0,0.000885,0,0
0:3:8.229,334.013,42.5269,0,0.000885,0,0
0:3:9.017,335.48,42.713,0,0.000885,0,0
0:3:9.817,336.828,42.8854,0,0.000885,0,0
0:3:10.628,336.891,42.8923,0,0.000885,0,0
0:3:10.881,326.037,41.5133,0,0.000885,0,0