File: DataFile2021-07-18_075101.csv
Test ID:,Date Tested:,Time:,Test Type:,Diameter Avg. (mm):,Cyl. Corr. Factor:,Height (mm):,Age (days):,Weight (kN):,Break Type:,Ramp Rate (MPa/s):,Load at Break (kN):,Stress at Break (MPa):
12,7/18/2021,07:51,Cylinder,100,1,200,0,3.89,3,0.35,1150.9,146.53
Sample Time,Load (kN),Stress (MPa),Long. Strain,Trans. Strain,Chan1 Deflection (mm),Chan2 Deflection (mm)
0:0:13.690,5.8672,0.744634,0,0.000885,0,0
0:0:15.515,9.79498,1.24795,0,0.000885,0,0
0:0:17.315,14.2521,1.81332,0,0.000885,0,0
0:0:19.099,19.4699,2.48211,0,0.000885,0,0
0:0:20.920,24.1049,3.06817,0,0.000885,0,0
0:0:22.711,29.207,3.71627,0,0.000885,0,0
0:0:24.525,34.9541,4.45401,0,0.000885,0,0
0:0:26.328,40.5277,5.15728,0,0.000885,0,0
0:0:28.121,44.8692,5.71575,0,0.000885,0,0
0:0:29.929,49.442,6.29491,0,0.000885,0,0
0:0:31.728,54.5441,6.94302,0,0.000885,0,0
0:0:33.520,60.0599,7.64629,0,0.000885,0,0
0:0:35.333,64.9841,8.27371,0,0.000885,0,0
0:0:37.128,69.9705,8.90803,0,0.000885,0,0
0:0:38.921,74.957,9.54234,0,0.000885,0,0
0:0:40.732,79.6454,10.1422,0,0.000885,0,0
0:0:42.526,85.3347,10.8661,0,0.000885,0,0
0:0:44.325,89.1468,11.3488,0,0.000885,0,0
0:0:46.131,95.1297,12.1141,0,0.000885,0,0
0:0:47.920,99.4133,12.6588,0,0.000885,0,0
0:0:49.723,104.106,13.2517,0,0.000885,0,0
0:0:51.523,109.03,13.8791,0,0.000885,0,0
0:0:53.315,113.901,14.4997,0,0.000885,0,0
0:0:55.129,118.71,15.1133,0,0.000885,0,0
0:0:56.930,124.279,15.8235,0,0.000885,0,0
0:0:58.719,128.856,16.4095,0,0.000885,0,0
0:1:0.534,133.9,17.0507,0,0.000885,0,0
0:1:2.326,138.825,17.6782,0,0.000885,0,0
0:1:4.119,143.927,18.3263,0,0.000885,0,0
0:1:5.933,148.677,18.933,0,0.000885,0,0
0:1:7.722,153.779,19.5811,0,0.000885,0,0
0:1:9.527,158.944,20.2361,0,0.000885,0,0
0:1:11.330,163.459,20.8153,0,0.000885,0,0
0:1:13.124,168.325,21.4289,0,0.000885,0,0
0:1:14.931,173.783,22.1253,0,0.000885,0,0
0:1:16.734,178.298,22.7044,0,0.000885,0,0
0:1:18.522,183.164,23.3181,0,0.000885,0,0
0:1:20.336,188.387,23.9869,0,0.000885,0,0
0:1:22.131,193.253,24.6074,0,0.000885,0,0
0:1:23.920,197.768,25.1797,0,0.000885,0,0
0:1:25.724,203.929,25.9657,0,0.000885,0,0
0:1:27.500,208.559,26.5517,0,0.000885,0,0
0:1:29.309,213.016,27.124,0,0.000885,0,0
0:1:31.100,217.945,27.7514,0,0.000885,0,0
0:1:32.909,223.047,28.3995,0,0.000885,0,0
0:1:34.712,227.682,28.9925,0,0.000885,0,0
0:1:36.511,233.136,29.6819,0,0.000885,0,0
0:1:38.288,237.771,30.2749,0,0.000885,0,0
0:1:40.087,242.873,30.923,0,0.000885,0,0
0:1:41.872,247.503,31.5159,0,0.000885,0,0
0:1:43.652,252.432,32.1434,0,0.000885,0,0
0:1:45.456,257.77,32.819,0,0.000885,0,0
0:1:47.233,262.227,33.3844,0,0.000885,0,0
0:1:49.014,267.093,34.0049,0,0.000885,0,0
0:1:50.813,272.316,34.6737,0,0.000885,0,0
0:1:52.592,276.888,35.2529,0,0.000885,0,0
0:1:54.378,282.168,35.9286,0,0.000885,0,0
0:1:56.174,286.861,36.5215,0,0.000885,0,0
0:1:57.948,291.141,37.0662,0,0.000885,0,0
0:1:59.749,296.772,37.7833,0,0.000885,0,0
0:2:1.531,301.696,38.4107,0,0.000885,0,0
0:2:3.321,306.095,38.9761,0,0.000885,0,0
0:2:5.129,311.727,39.6931,0,0.000885,0,0
0:2:6.909,316.535,40.2999,0,0.000885,0,0
0:2:8.715,321.7,40.9618,0,0.000885,0,0
0:2:10.522,325.921,41.4995,0,0.000885,0,0
0:2:12.316,331.317,42.1821,0,0.000885,0,0
0:2:14.114,336.068,42.7889,0,0.000885,0,0
0:2:15.912,341.641,43.499,0,0.000885,0,0
0:2:17.712,346.33,44.0989,0,0.000885,0,0
0:2:19.504,350.204,44.5884,0,0.000885,0,0
0:2:21.313,355.658,45.2848,0,0.000885,0,0
0:2:23.107,361.347,46.0087,0,0.000885,0,0
0:2:24.915,366.04,46.6086,0,0.000885,0,0
0:2:26.699,370.377,47.1601,0,0.000885,0,0
0:2:28.479,374.834,47.7255,0,0.000885,0,0
0:2:30.277,380.759,48.477,0,0.000885,0,0
0:2:32.059,385.688,49.1045,0,0.000885,0,0
0:2:33.841,390.732,49.7526,0,0.000885,0,0
0:2:35.640,395.305,50.3317,0,0.000885,0,0
0:2:37.428,399.94,50.9247,0,0.000885,0,0
0:2:39.214,405.567,51.6417,0,0.000885,0,0
0:2:41.029,409.966,52.2002,0,0.000885,0,0
0:2:42.825,414.952,52.8345,0,0.000885,0,0
0:2:44.627,420.17,53.4964,0,0.000885,0,0
0:2:46.414,424.983,54.1101,0,0.000885,0,0
0:2:48.213,430.201,54.772,0,0.000885,0,0
0:2:50.014,435.067,55.3925,0,0.000885,0,0
0:2:51.806,439.76,55.9923,0,0.000885,0,0
0:2:53.612,444.982,56.6542,0,0.000885,0,0
0:2:55.414,449.613,57.2472,0,0.000885,0,0
0:2:57.230,454.657,57.8884,0,0.000885,0,0
0:2:59.030,459.234,58.4744,0,0.000885,0,0
0:3:0.831,464.337,59.1225,0,0.000885,0,0
0:3:2.629,470.555,59.9154,0,0.000885,0,0
0:3:4.426,474.189,60.3774,0,0.000885,0,0
0:3:6.217,479.527,61.0531,0,0.000885,0,0
0:3:8.013,484.571,61.6943,0,0.000885,0,0
0:3:9.815,489.553,62.3355,0,0.000885,0,0
0:3:11.616,494.015,62.9009,0,0.000885,0,0
0:3:13.426,499.469,63.5972,0,0.000885,0,0
0:3:15.226,504.455,64.2316,0,0.000885,0,0
0:3:17.026,509.495,64.8728,0,0.000885,0,0
0:3:18.831,513.956,65.4381,0,0.000885,0,0
0:3:20.636,518.707,66.0449,0,0.000885,0,0
0:3:22.420,523.809,66.693,0,0.000885,0,0
0:3:24.234,529.263,67.3894,0,0.000885,0,0
0:3:26.032,534.249,68.0237,0,0.000885,0,0
0:3:27.822,538.177,68.5201,0,0.000885,0,0
0:3:29.624,544.044,69.2716,0,0.000885,0,0
0:3:31.413,548.795,69.8715,0,0.000885,0,0
0:3:33.229,553.661,70.492,0,0.000885,0,0
0:3:35.038,558.821,71.1539,0,0.000885,0,0
0:3:36.828,563.336,71.7262,0,0.000885,0,0
0:3:38.628,568.558,72.3881,0,0.000885,0,0
0:3:40.430,573.015,72.9603,0,0.000885,0,0
0:3:42.236,578.527,73.6636,0,0.000885,0,0
0:3:44.035,583.278,74.2634,0,0.000885,0,0
0:3:45.833,588.326,74.9046,0,0.000885,0,0
0:3:47.632,593.313,75.5459,0,0.000885,0,0
0:3:49.435,598.246,76.1733,0,0.000885,0,0
0:3:51.232,602.65,76.7318,0,0.000885,0,0
0:3:53.024,608.107,77.4281,0,0.000885,0,0
0:3:54.837,613.094,78.0624,0,0.000885,0,0
0:3:56.630,617.911,78.6761,0,0.000885,0,0
0:3:58.417,622.662,79.2828,0,0.000885,0,0
0:4:0.227,627.653,79.9171,0,0.000885,0,0
0:4:2.026,632.586,80.5446,0,0.000885,0,0
0:4:3.813,637.337,81.1513,0,0.000885,0,0
0:4:5.623,642.857,81.8477,0,0.000885,0,0
0:4:7.424,647.906,82.4958,0,0.000885,0,0
0:4:9.223,652.541,83.0818,0,0.000885,0,0
0:4:11.034,657.238,83.6817,0,0.000885,0,0
0:4:12.827,662.46,84.3505,0,0.000885,0,0
0:4:14.635,667.1,84.9365,0,0.000885,0,0
0:4:16.435,672.967,85.688,0,0.000885,0,0
0:4:18.235,677.664,86.281,0,0.000885,0,0
0:4:20.050,682.126,86.8533,0,0.000885,0,0
0:4:21.842,687.41,87.522,0,0.000885,0,0
0:4:23.626,691.81,88.0874,0,0.000885,0,0
0:4:25.442,697.036,88.7493,0,0.000885,0,0
0:4:27.234,702.027,89.3836,0,0.000885,0,0
0:4:29.035,707.543,90.0869,0,0.000885,0,0
0:4:30.831,711.769,90.6247,0,0.000885,0,0
0:4:32.628,716.64,91.2452,0,0.000885,0,0
0:4:34.441,722.04,91.9347,0,0.000885,0,0
0:4:36.238,726.915,92.5552,0,0.000885,0,0
0:4:38.029,731.492,93.1344,0,0.000885,0,0
0:4:39.838,737.008,93.8376,0,0.000885,0,0
0:4:41.629,741.763,94.4444,0,0.000885,0,0
0:4:43.428,746.87,95.0925,0,0.000885,0,0
0:4:45.257,751.861,95.7268,0,0.000885,0,0
0:4:47.048,756.38,96.306,0,0.000885,0,0
0:4:48.839,761.371,96.9403,0,0.000885,0,0
0:4:50.648,766.357,97.5746,0,0.000885,0,0
0:4:52.431,771.233,98.1951,0,0.000885,0,0
0:4:54.229,776.455,98.8639,0,0.000885,0,0
0:4:56.041,781.152,99.4569,0,0.000885,0,0
0:4:57.828,786.552,100.146,0,0.000885,0,0
0:4:59.627,791.072,100.726,0,0.000885,0,0
0:5:1.427,795.827,101.325,0,0.000885,0,0
0:5:3.221,801.578,102.063,0,0.000885,0,0
0:5:5.034,805.982,102.622,0,0.000885,0,0
0:5:6.829,810.502,103.194,0,0.000885,0,0
0:5:8.624,815.786,103.87,0,0.000885,0,0
0:5:10.446,820.773,104.504,0,0.000885,0,0
0:5:12.233,825.176,105.062,0,0.000885,0,0
0:5:14.044,830.754,105.772,0,0.000885,0,0
0:5:15.855,835.977,106.441,0,0.000885,0,0
0:5:17.642,840.847,107.062,0,0.000885,0,0
0:5:19.446,845.545,107.655,0,0.000885,0,0
0:5:21.248,850.829,108.33,0,0.000885,0,0
0:5:23.034,855.349,108.91,0,0.000885,0,0
0:5:24.845,860.691,109.585,0,0.000885,0,0
0:5:26.644,865.384,110.185,0,0.000885,0,0
0:5:28.437,869.965,110.764,0,0.000885,0,0
0:5:30.250,875.072,111.419,0,0.000885,0,0
0:5:32.036,880.41,112.095,0,0.000885,0,0
0:5:33.832,885.227,112.709,0,0.000885,0,0
0:5:35.645,890.04,113.322,0,0.000885,0,0
0:5:37.431,894.675,113.915,0,0.000885,0,0
0:5:39.232,900.075,114.605,0,0.000885,0,0
0:5:41.029,905.066,115.239,0,0.000885,0,0
0:5:42.826,909.701,115.825,0,0.000885,0,0
0:5:44.629,914.87,116.487,0,0.000885,0,0
0:5:46.423,919.799,117.114,0,0.000885,0,0
0:5:48.219,924.848,117.756,0,0.000885,0,0
0:5:50.027,930.07,118.417,0,0.000885,0,0
0:5:51.825,935.118,119.066,0,0.000885,0,0
0:5:53.625,939.344,119.603,0,0.000885,0,0
0:5:55.446,944.807,120.3,0,0.000885,0,0
0:5:57.231,949.851,120.941,0,0.000885,0,0
0:5:59.037,954.606,121.548,0,0.000885,0,0
0:6:0.845,960.126,122.244,0,0.000885,0,0
0:6:2.638,964.001,122.74,0,0.000885,0,0
0:6:4.437,969.343,123.423,0,0.000885,0,0
0:6:6.248,973.862,123.995,0,0.000885,0,0
0:6:8.044,979.494,124.712,0,0.000885,0,0
0:6:9.849,983.898,125.271,0,0.000885,0,0
0:6:11.645,988.711,125.884,0,0.000885,0,0
0:6:13.437,994.524,126.629,0,0.000885,0,0
0:6:15.249,999.217,127.222,0,0.000885,0,0
0:6:17.038,1003.39,127.753,0,0.000885,0,0
0:6:18.830,1008.61,128.422,0,0.000885,0,0
0:6:20.636,1014.01,129.111,0,0.000885,0,0
0:6:22.419,1019,129.746,0,0.000885,0,0
0:6:24.223,1023.34,130.297,0,0.000885,0,0
0:6:26.032,1028.04,130.897,0,0.000885,0,0
0:6:27.831,1033.91,131.642,0,0.000885,0,0
0:6:29.633,1038.25,132.193,0,0.000885,0,0
0:6:31.449,1043.66,132.883,0,0.000885,0,0
0:6:33.255,1048.76,133.531,0,0.000885,0,0
0:6:35.066,1053.22,134.103,0,0.000885,0,0
0:6:36.855,1058.27,134.744,0,0.000885,0,0
0:6:38.648,1063.26,135.379,0,0.000885,0,0
0:6:40.463,1068.25,136.013,0,0.000885,0,0
0:6:42.247,1073.59,136.695,0,0.000885,0,0
0:6:44.034,1078.52,137.323,0,0.000885,0,0
0:6:45.843,1083.16,137.909,0,0.000885,0,0
0:6:47.634,1087.68,138.488,0,0.000885,0,0
0:6:49.434,1090.09,138.791,0,0.000885,0,0
0:6:51.231,1098.36,139.846,0,0.000885,0,0
0:6:53.024,1103.18,140.46,0,0.000885,0,0
0:6:54.832,1108.52,141.143,0,0.000885,0,0
0:6:56.643,1112.98,141.708,0,0.000885,0,0
0:6:58.442,1116.62,142.17,0,0.000885,0,0
0:7:0.250,1122.96,142.977,0,0.000885,0,0
0:7:2.034,1122.08,142.866,0,0.000885,0,0
0:7:3.827,1135.52,144.576,0,0.000885,0,0
0:7:5.632,1137.98,144.893,0,0.000885,0,0
0:7:7.413,1143.09,145.541,0,0.000885,0,0
0:7:9.212,1148.84,146.272,0,0.000885,0,0
0:7:11.010,1150.25,146.452,0,0.000885,0,0
0:7:11.574,886.397,112.86,0,0.000885,0,0