File: DataFile2021-06-29_043218.csv
Test ID:,Date Tested:,Time:,Test Type:,Width (mm):,Depth (mm):,Height (mm):,Age (days):,Weight (kN):,Ramp Rate (MPa/s):,Load at Break (kN):,Stress at Break (MPa):
12,6/29/2021,04:32,Cube,150,150,150,7,8.37,0,77.3,3.43
Sample Time,Load (kN),Stress (MPa),Long. Strain,Trans. Strain,Chan1 Deflection (mm),Chan2 Deflection (mm)
0:0:10.165,10.0886,0.448159,0,0.000885,0,0
0:0:11.047,11.0271,0.489528,0,0.000885,0,0
0:0:11.945,11.9657,0.530896,0,0.000885,0,0
0:0:12.832,14.5457,0.648107,0,0.000885,0,0
0:0:13.733,16.8321,0.751529,0,0.000885,0,0
0:0:14.637,18.1799,0.806687,0,0.000885,0,0
0:0:15.533,21.4671,0.951477,0,0.000885,0,0
0:0:16.430,23.6957,1.0549,0,0.000885,0,0
0:0:17.330,25.6885,1.14453,0,0.000885,0,0
0:0:18.238,27.6813,1.22727,0,0.000885,0,0
0:0:19.138,29.3271,1.30311,0,0.000885,0,0
0:0:20.038,31.0842,1.37895,0,0.000885,0,0
0:0:20.937,33.3706,1.48237,0,0.000885,0,0
0:0:21.829,34.4292,1.53064,0,0.000885,0,0
0:0:22.728,37.4763,1.66853,0,0.000885,0,0
0:0:23.641,39.5892,1.75816,0,0.000885,0,0
0:0:24.544,41.2884,1.83401,0,0.000885,0,0
0:0:25.438,43.5792,1.93743,0,0.000885,0,0
0:0:26.333,45.6877,2.03395,0,0.000885,0,0
0:0:27.222,47.5648,2.11669,0,0.000885,0,0
0:0:28.145,49.4998,2.19943,0,0.000885,0,0
0:0:29.042,51.6127,2.29595,0,0.000885,0,0
0:0:29.943,53.432,2.3718,0,0.000885,0,0
0:0:30.842,55.4827,2.46832,0,0.000885,0,0
0:0:31.735,57.4755,2.55795,0,0.000885,0,0
0:0:32.643,59.5305,2.64759,0,0.000885,0,0
0:0:33.534,61.4655,2.73032,0,0.000885,0,0
0:0:34.438,63.4583,2.81996,0,0.000885,0,0
0:0:35.346,65.0419,2.8889,0,0.000885,0,0
0:0:36.243,65.3933,2.90959,0,0.000885,0,0
0:0:37.133,65.9226,2.93027,0,0.000885,0,0
0:0:38.045,68.9741,3.06817,0,0.000885,0,0
0:0:38.944,68.7962,3.05438,0,0.000885,0,0
0:0:39.848,72.8441,3.24054,0,0.000885,0,0
0:0:40.730,74.8369,3.32327,0,0.000885,0,0
0:0:41.627,75.8333,3.37154,0,0.000885,0,0
0:0:42.525,77.4791,3.44048,0,0.000885,0,0
0:0:43.435,74.0762,3.29569,0,0.000885,0,0
0:0:44.340,72.9597,3.24054,0,0.000885,0,0
0:0:45.235,73.6047,3.26811,0,0.000885,0,0
0:0:46.130,73.9561,3.2888,0,0.000885,0,0
0:0:47.030,74.312,3.30259,0,0.000885,0,0
0:0:47.929,71.9055,3.19917,0,0.000885,0,0
0:0:48.841,69.3834,3.08196,0,0.000885,0,0
0:0:49.747,67.4484,2.99922,0,0.000885,0,0
0:0:50.644,63.1069,2.80617,0,0.000885,0,0
0:0:51.549,59.9398,2.66138,0,0.000885,0,0
0:0:52.433,60.1177,2.67517,0,0.000885,0,0
0:0:53.343,60.5848,2.69585,0,0.000885,0,0
0:0:54.240,61.1141,2.71653,0,0.000885,0,0
0:0:55.141,61.8169,2.74411,0,0.000885,0,0
0:0:56.043,61.5234,2.73722,0,0.000885,0,0
0:0:56.932,61.8169,2.74411,0,0.000885,0,0
0:0:57.842,61.5234,2.73722,0,0.000885,0,0
0:0:58.744,61.7013,2.74411,0,0.000885,0,0
0:0:59.647,61.5234,2.73722,0,0.000885,0,0
0:1:0.542,60.527,2.68896,0,0.000885,0,0
0:1:1.436,60.1177,2.67517,0,0.000885,0,0
0:1:2.345,58.8277,2.61311,0,0.000885,0,0
0:1:3.247,58.0626,2.57864,0,0.000885,0,0
0:1:4.142,57.3598,2.55106,0,0.000885,0,0
0:1:5.049,57.947,2.57864,0,0.000885,0,0
0:1:5.946,57.8313,2.57174,0,0.000885,0,0
0:1:6.835,57.302,2.54417,0,0.000885,0,0
0:1:7.745,57.5377,2.55795,0,0.000885,0,0
0:1:8.643,57.3598,2.55106,0,0.000885,0,0
0:1:9.545,56.4791,2.50969,0,0.000885,0,0
0:1:10.446,56.4791,2.50969,0,0.000885,0,0
0:1:11.343,56.1855,2.4959,0,0.000885,0,0
0:1:12.246,55.4827,2.46832,0,0.000885,0,0
0:1:13.147,55.3092,2.46143,0,0.000885,0,0
0:1:14.047,54.8955,2.44074,0,0.000885,0,0
0:1:14.945,54.5441,2.42695,0,0.000885,0,0
0:1:15.852,54.2505,2.41317,0,0.000885,0,0
0:1:16.747,54.8377,2.43385,0,0.000885,0,0
0:1:17.650,54.4284,2.42006,0,0.000885,0,0
0:1:18.548,54.2505,2.41317,0,0.000885,0,0
0:1:19.445,54.077,2.40627,0,0.000885,0,0
0:1:20.347,53.6633,2.38559,0,0.000885,0,0
0:1:21.247,51.6705,2.29595,0,0.000885,0,0
0:1:22.137,51.4348,2.28906,0,0.000885,0,0
0:1:23.048,51.2035,2.27527,0,0.000885,0,0
0:1:23.950,51.1412,2.27527,0,0.000885,0,0
0:1:24.848,51.377,2.28216,0,0.000885,0,0
0:1:25.747,51.6705,2.29595,0,0.000885,0,0
0:1:26.649,51.3191,2.28216,0,0.000885,0,0
0:1:27.550,51.3191,2.28216,0,0.000885,0,0
0:1:28.451,51.4971,2.28906,0,0.000885,0,0
0:1:29.350,51.1412,2.27527,0,0.000885,0,0
0:1:30.248,51.6127,2.29595,0,0.000885,0,0
0:1:31.141,51.3191,2.28216,0,0.000885,0,0
0:1:32.033,52.0798,2.31664,0,0.000885,0,0
0:1:32.952,52.9027,2.35111,0,0.000885,0,0
0:1:33.850,53.0184,2.35801,0,0.000885,0,0
0:1:34.745,53.5477,2.37869,0,0.000885,0,0
0:1:35.652,53.5477,2.37869,0,0.000885,0,0
0:1:36.549,52.6669,2.34422,0,0.000885,0,0
0:1:37.453,45.9234,2.04085,0,0.000885,0,0
0:1:38.346,45.3941,2.02016,0,0.000885,0,0
0:1:39.255,44.8692,1.99258,0,0.000885,0,0
0:1:40.152,44.8692,1.99258,0,0.000885,0,0
0:1:41.047,44.4555,1.9788,0,0.000885,0,0
0:1:41.947,45.0427,1.99948,0,0.000885,0,0
0:1:42.848,45.3941,2.02016,0,0.000885,0,0
0:1:43.746,45.7455,2.03395,0,0.000885,0,0
0:1:44.654,45.8078,2.03395,0,0.000885,0,0
0:1:45.549,45.3363,2.01327,0,0.000885,0,0
0:1:46.454,45.5142,2.02016,0,0.000885,0,0
0:1:47.348,45.5142,2.02016,0,0.000885,0,0
0:1:48.248,45.3363,2.01327,0,0.000885,0,0
0:1:49.150,45.3941,2.02016,0,0.000885,0,0
0:1:50.049,45.4519,2.02016,0,0.000885,0,0
0:1:50.942,45.3363,2.01327,0,0.000885,0,0
0:1:51.848,45.4519,2.02016,0,0.000885,0,0
0:1:52.752,45.5142,2.02016,0,0.000885,0,0
0:1:53.650,45.3363,2.01327,0,0.000885,0,0
0:1:54.548,45.2784,2.01327,0,0.000885,0,0
0:1:55.448,44.8692,1.99258,0,0.000885,0,0
0:1:56.351,44.6913,1.98569,0,0.000885,0,0
0:1:57.253,44.282,1.96501,0,0.000885,0,0
0:1:58.150,43.8684,1.95122,0,0.000885,0,0
0:1:59.048,43.9885,1.95811,0,0.000885,0,0
0:1:59.950,43.8105,1.94432,0,0.000885,0,0
0:2:0.849,43.8684,1.95122,0,0.000885,0,0
0:2:1.750,43.9885,1.95811,0,0.000885,0,0
0:2:2.651,44.1041,1.95811,0,0.000885,0,0
0:2:3.551,43.9306,1.95122,0,0.000885,0,0
0:2:4.450,43.6949,1.94432,0,0.000885,0,0
0:2:5.355,43.9306,1.95122,0,0.000885,0,0
0:2:6.252,43.7527,1.94432,0,0.000885,0,0
0:2:7.151,43.8684,1.95122,0,0.000885,0,0
0:2:8.050,43.5792,1.93743,0,0.000885,0,0
0:2:8.955,43.1655,1.91674,0,0.000885,0,0
0:2:9.854,43.4591,1.93053,0,0.000885,0,0
0:2:10.745,43.2856,1.92364,0,0.000885,0,0
0:2:11.640,43.2234,1.92364,0,0.000885,0,0
0:2:12.565,42.9921,1.90985,0,0.000885,0,0
0:2:13.455,42.1691,1.87537,0,0.000885,0,0
0:2:14.346,42.5206,1.88916,0,0.000885,0,0
0:2:15.244,42.1113,1.86848,0,0.000885,0,0
0:2:16.153,42.227,1.87537,0,0.000885,0,0
0:2:17.056,42.1113,1.86848,0,0.000885,0,0
0:2:17.950,41.7599,1.85469,0,0.000885,0,0
0:2:18.845,42.1113,1.86848,0,0.000885,0,0
0:2:19.755,41.7021,1.85469,0,0.000885,0,0
0:2:20.646,41.7021,1.85469,0,0.000885,0,0
0:2:21.540,42.1691,1.87537,0,0.000885,0,0
0:2:22.445,41.9957,1.86848,0,0.000885,0,0
0:2:23.353,41.4663,1.8409,0,0.000885,0,0
0:2:24.253,41.7599,1.85469,0,0.000885,0,0
0:2:25.155,41.582,1.84779,0,0.000885,0,0
0:2:26.053,41.582,1.84779,0,0.000885,0,0
0:2:26.955,41.8177,1.86158,0,0.000885,0,0
0:2:27.855,41.5241,1.84779,0,0.000885,0,0
0:2:28.756,41.8177,1.86158,0,0.000885,0,0
0:2:29.655,41.6398,1.84779,0,0.000885,0,0
0:2:30.552,41.2884,1.83401,0,0.000885,0,0
0:2:31.446,41.582,1.84779,0,0.000885,0,0
0:2:32.358,41.2306,1.83401,0,0.000885,0,0
0:2:33.255,41.4085,1.8409,0,0.000885,0,0
0:2:34.154,41.1727,1.82711,0,0.000885,0,0
0:2:35.060,41.2306,1.83401,0,0.000885,0,0
0:2:35.957,40.4121,1.79264,0,0.000885,0,0
0:2:36.858,40.4699,1.79953,0,0.000885,0,0
0:2:37.756,40.4121,1.79264,0,0.000885,0,0
0:2:38.655,40.6434,1.80643,0,0.000885,0,0
0:2:39.556,40.5856,1.80643,0,0.000885,0,0
0:2:40.453,40.7635,1.81332,0,0.000885,0,0
0:2:41.345,40.292,1.79264,0,0.000885,0,0
0:2:42.253,40.5277,1.79953,0,0.000885,0,0
0:2:43.157,40.3498,1.79264,0,0.000885,0,0
0:2:44.054,40.4699,1.79953,0,0.000885,0,0
0:2:44.961,40.5277,1.79953,0,0.000885,0,0
0:2:45.855,40.292,1.79264,0,0.000885,0,0
0:2:46.749,40.3498,1.79264,0,0.000885,0,0
0:2:47.666,40.6434,1.80643,0,0.000885,0,0
0:2:48.553,40.3498,1.79264,0,0.000885,0,0
0:2:49.454,40.2342,1.78574,0,0.000885,0,0
0:2:50.356,40.2342,1.78574,0,0.000885,0,0
0:2:51.261,40.4121,1.79264,0,0.000885,0,0
0:2:52.155,40.1763,1.78574,0,0.000885,0,0
0:2:53.054,39.9406,1.77195,0,0.000885,0,0
0:2:53.956,39.8249,1.77195,0,0.000885,0,0
0:2:54.864,39.7671,1.76506,0,0.000885,0,0
0:2:55.759,39.5892,1.75816,0,0.000885,0,0
0:2:56.654,39.7048,1.76506,0,0.000885,0,0
0:2:57.557,39.8828,1.77195,0,0.000885,0,0
0:2:58.456,39.4112,1.75127,0,0.000885,0,0
0:2:59.364,39.4735,1.75127,0,0.000885,0,0
0:3:0.254,39.5313,1.75816,0,0.000885,0,0
0:3:1.155,39.4735,1.75127,0,0.000885,0,0
0:3:2.057,39.7048,1.76506,0,0.000885,0,0
0:3:2.955,39.4735,1.75127,0,0.000885,0,0
0:3:3.855,39.5313,1.75816,0,0.000885,0,0
0:3:4.756,39.7048,1.76506,0,0.000885,0,0
0:3:5.656,39.8828,1.77195,0,0.000885,0,0
0:3:6.559,39.4112,1.75127,0,0.000885,0,0
0:3:7.459,39.8249,1.77195,0,0.000885,0,0
0:3:8.359,39.5892,1.75816,0,0.000885,0,0
0:3:9.257,39.7048,1.76506,0,0.000885,0,0
0:3:10.164,39.4112,1.75127,0,0.000885,0,0
0:3:11.059,39.8249,1.77195,0,0.000885,0,0
0:3:11.960,39.4112,1.75127,0,0.000885,0,0
0:3:12.860,39.2956,1.74437,0,0.000885,0,0
0:3:13.757,39.2956,1.74437,0,0.000885,0,0
0:3:14.657,39.4112,1.75127,0,0.000885,0,0
0:3:15.558,39.2956,1.74437,0,0.000885,0,0
0:3:16.452,39.4735,1.75127,0,0.000885,0,0
0:3:17.360,39.7671,1.76506,0,0.000885,0,0
0:3:18.257,39.1799,1.74437,0,0.000885,0,0
0:3:19.158,39.0598,1.73748,0,0.000885,0,0
0:3:20.059,39.4112,1.75127,0,0.000885,0,0
0:3:20.957,39.4112,1.75127,0,0.000885,0,0
0:3:21.847,39.4735,1.75127,0,0.000885,0,0
0:3:22.768,39.5892,1.75816,0,0.000885,0,0
0:3:23.661,39.7671,1.76506,0,0.000885,0,0
0:3:24.559,39.2956,1.74437,0,0.000885,0,0
0:3:25.458,39.4735,1.75127,0,0.000885,0,0
0:3:26.362,39.5313,1.75816,0,0.000885,0,0
0:3:27.260,39.3534,1.75127,0,0.000885,0,0
0:3:28.159,39.1177,1.73748,0,0.000885,0,0
0:3:29.058,38.9442,1.73058,0,0.000885,0,0
0:3:29.964,38.9442,1.73058,0,0.000885,0,0
0:3:30.540,38.8864,1.73058,0,0.000885,0,0