File: DataFile2021-07-03_081534.csv
Test ID:,Date Tested:,Time:,Test Type:,Diameter Avg. (mm):,Cyl. Corr. Factor:,Height (mm):,Age (days):,Weight (kN):,Break Type:,Ramp Rate (MPa/s):,Load at Break (kN):,Stress at Break (MPa):
12,7/3/2021,08:15,Cylinder,100,1,200,0,3.6,3,0.23,520.58,66.28
Sample Time,Load (kN),Stress (MPa),Long. Strain,Trans. Strain,Chan1 Deflection (mm),Chan2 Deflection (mm)
0:0:18.203,5.63145,0.717055,0,0.000885,0,0
0:0:19.494,9.14999,1.16521,0,0.000885,0,0
0:0:20.788,10.44,1.33069,0,0.000885,0,0
0:0:22.078,12.9621,1.64785,0,0.000885,0,0
0:0:23.369,14.6035,1.86158,0,0.000885,0,0
0:0:24.679,17.4771,2.22701,0,0.000885,0,0
0:0:25.982,20.4707,2.60622,0,0.000885,0,0
0:0:27.277,23.1085,2.94406,0,0.000885,0,0
0:0:28.567,25.6307,3.26122,0,0.000885,0,0
0:0:29.884,28.1528,3.58527,0,0.000885,0,0
0:0:31.183,30.6749,3.90243,0,0.000885,0,0
0:0:32.477,33.3127,4.24028,0,0.000885,0,0
0:0:33.778,35.8927,4.57122,0,0.000885,0,0
0:0:35.090,38.5349,4.90907,0,0.000885,0,0
0:0:36.388,41.0571,5.22623,0,0.000885,0,0
0:0:37.682,43.4013,5.5227,0,0.000885,0,0
0:0:38.988,45.9813,5.85365,0,0.000885,0,0
0:0:40.295,48.5612,6.1846,0,0.000885,0,0
0:0:41.589,51.0834,6.50176,0,0.000885,0,0
0:0:42.884,53.1963,6.77065,0,0.000885,0,0
0:0:44.192,55.9542,7.12228,0,0.000885,0,0
0:0:45.497,59.0012,7.51529,0,0.000885,0,0
0:0:46.787,61.2298,7.79797,0,0.000885,0,0
0:0:48.083,63.6363,8.10134,0,0.000885,0,0
0:0:49.392,66.452,8.45987,0,0.000885,0,0
0:0:50.696,68.854,8.77013,0,0.000885,0,0
0:0:51.991,71.8477,9.14934,0,0.000885,0,0
0:0:53.287,74.0762,9.43203,0,0.000885,0,0
0:0:54.596,76.892,9.79056,0,0.000885,0,0
0:0:55.902,79.0627,10.0663,0,0.000885,0,0
0:0:57.191,81.4069,10.3628,0,0.000885,0,0
0:0:58.488,84.2226,10.7213,0,0.000885,0,0
0:0:59.804,87.2741,11.1143,0,0.000885,0,0
0:1:1.101,89.5027,11.397,0,0.000885,0,0
0:1:2.394,91.5533,11.659,0,0.000885,0,0
0:1:3.690,94.4268,12.0245,0,0.000885,0,0
0:1:5.006,97.2426,12.383,0,0.000885,0,0
0:1:6.300,99.9426,12.7277,0,0.000885,0,0
0:1:7.594,101.815,12.9621,0,0.000885,0,0
0:1:8.892,104.515,13.3069,0,0.000885,0,0
0:1:10.204,106.98,13.624,0,0.000885,0,0
0:1:11.498,110.089,14.017,0,0.000885,0,0
0:1:12.794,112.549,14.3273,0,0.000885,0,0
0:1:14.100,114.604,14.5893,0,0.000885,0,0
0:1:15.405,117.535,14.9685,0,0.000885,0,0
0:1:16.694,119.88,15.265,0,0.000885,0,0
0:1:17.992,122.522,15.6028,0,0.000885,0,0
0:1:19.301,125.102,15.9269,0,0.000885,0,0
0:1:20.605,127.624,16.2509,0,0.000885,0,0
0:1:21.894,129.968,16.5474,0,0.000885,0,0
0:1:23.193,132.962,16.9266,0,0.000885,0,0
0:1:24.503,135.542,17.2576,0,0.000885,0,0
0:1:25.805,137.535,17.5127,0,0.000885,0,0
0:1:27.098,140.408,17.8781,0,0.000885,0,0
0:1:28.393,143.05,18.2159,0,0.000885,0,0
0:1:29.704,145.746,18.5538,0,0.000885,0,0
0:1:31.005,147.917,18.8365,0,0.000885,0,0
0:1:32.299,150.848,19.2088,0,0.000885,0,0
0:1:33.597,153.49,19.5397,0,0.000885,0,0
0:1:34.911,155.132,19.7535,0,0.000885,0,0
0:1:36.204,158.415,20.1672,0,0.000885,0,0
0:1:37.498,161.115,20.5119,0,0.000885,0,0
0:1:38.795,163.81,20.8566,0,0.000885,0,0
0:1:40.110,166.217,21.16,0,0.000885,0,0
0:1:41.402,168.094,21.4013,0,0.000885,0,0
0:1:42.700,171.261,21.8081,0,0.000885,0,0
0:1:44.000,173.312,22.0701,0,0.000885,0,0
0:1:45.313,176.243,22.4424,0,0.000885,0,0
0:1:46.603,179.53,22.8561,0,0.000885,0,0
0:1:47.901,181.172,23.0699,0,0.000885,0,0
0:1:49.210,183.458,23.3594,0,0.000885,0,0
0:1:50.512,185.98,23.6766,0,0.000885,0,0
0:1:51.805,189.089,24.0765,0,0.000885,0,0
0:1:53.102,191.669,24.4074,0,0.000885,0,0
0:1:54.408,194.369,24.7453,0,0.000885,0,0
0:1:55.700,196.536,25.0211,0,0.000885,0,0
0:1:56.986,199,25.3382,0,0.000885,0,0
0:1:58.268,201.758,25.6899,0,0.000885,0,0
0:1:59.575,204.044,25.9794,0,0.000885,0,0
0:2:0.864,206.682,26.3173,0,0.000885,0,0
0:2:2.154,209.498,26.6758,0,0.000885,0,0
0:2:3.443,211.789,26.9654,0,0.000885,0,0
0:2:4.751,214.311,27.2894,0,0.000885,0,0
0:2:6.038,216.771,27.5997,0,0.000885,0,0
0:2:7.341,219.413,27.9376,0,0.000885,0,0
0:2:8.627,221.464,28.1996,0,0.000885,0,0
0:2:9.932,224.631,28.5995,0,0.000885,0,0
0:2:11.225,227.095,28.9166,0,0.000885,0,0
0:2:12.505,229.791,29.2613,0,0.000885,0,0
0:2:13.805,231.788,29.5096,0,0.000885,0,0
0:2:15.099,234.661,29.875,0,0.000885,0,0
0:2:16.387,237.535,30.2404,0,0.000885,0,0
0:2:17.669,239.412,30.4817,0,0.000885,0,0
0:2:18.967,242.344,30.854,0,0.000885,0,0
0:2:20.264,244.63,31.1505,0,0.000885,0,0
0:2:21.545,247.152,31.4677,0,0.000885,0,0
0:2:22.850,249.674,31.7917,0,0.000885,0,0
0:2:24.149,252.899,32.1985,0,0.000885,0,0
0:2:25.454,255.07,32.4743,0,0.000885,0,0
0:2:26.754,257.476,32.7846,0,0.000885,0,0
0:2:28.051,259.941,33.0948,0,0.000885,0,0
0:2:29.360,262.694,33.4465,0,0.000885,0,0
0:2:30.656,265.568,33.8119,0,0.000885,0,0
0:2:31.944,267.796,34.0946,0,0.000885,0,0
0:2:33.250,270.087,34.391,0,0.000885,0,0
0:2:34.558,273.018,34.7634,0,0.000885,0,0
0:2:35.856,275.421,35.0667,0,0.000885,0,0
0:2:37.157,277.943,35.3908,0,0.000885,0,0
0:2:38.455,280.465,35.7079,0,0.000885,0,0
0:2:39.758,282.987,36.032,0,0.000885,0,0
0:2:41.053,285.745,36.3836,0,0.000885,0,0
0:2:42.356,288.267,36.7008,0,0.000885,0,0
0:2:43.641,290.673,37.0111,0,0.000885,0,0
0:2:44.946,293.018,37.3075,0,0.000885,0,0
0:2:46.242,295.54,37.6316,0,0.000885,0,0
0:2:47.525,298.591,38.0177,0,0.000885,0,0
0:2:48.822,300.291,38.2314,0,0.000885,0,0
0:2:50.119,303.4,38.6313,0,0.000885,0,0
0:2:51.402,305.508,38.9002,0,0.000885,0,0
0:2:52.689,308.675,39.3001,0,0.000885,0,0
0:2:53.988,311.082,39.6104,0,0.000885,0,0
0:2:55.280,313.955,39.9758,0,0.000885,0,0
0:2:56.564,316.068,40.2447,0,0.000885,0,0
0:2:57.849,318.177,40.5136,0,0.000885,0,0
0:2:59.148,320.877,40.8583,0,0.000885,0,0
0:3:0.442,323.75,41.2238,0,0.000885,0,0
0:3:1.742,325.979,41.5064,0,0.000885,0,0
0:3:3.038,328.679,41.8512,0,0.000885,0,0
0:3:4.339,331.139,42.1614,0,0.000885,0,0
0:3:5.630,334.306,42.5682,0,0.000885,0,0
0:3:6.915,336.477,42.844,0,0.000885,0,0
0:3:8.199,338.763,43.1336,0,0.000885,0,0
0:3:9.505,341.757,43.5128,0,0.000885,0,0
0:3:10.792,344.337,43.8438,0,0.000885,0,0
0:3:12.079,345.742,44.023,0,0.000885,0,0
0:3:13.371,349.088,44.4505,0,0.000885,0,0
0:3:14.675,351.668,44.7746,0,0.000885,0,0
0:3:15.957,354.016,45.0779,0,0.000885,0,0
0:3:17.250,356.654,45.4089,0,0.000885,0,0
0:3:18.566,359.292,45.7467,0,0.000885,0,0
0:3:19.864,361.992,46.0915,0,0.000885,0,0
0:3:21.151,364.22,46.3741,0,0.000885,0,0
0:3:22.444,366.858,46.712,0,0.000885,0,0
0:3:23.741,369.38,47.0291,0,0.000885,0,0
0:3:25.037,372.018,47.367,0,0.000885,0,0
0:3:26.336,374.367,47.6635,0,0.000885,0,0
0:3:27.617,376.889,47.9875,0,0.000885,0,0
0:3:28.916,379.175,48.2771,0,0.000885,0,0
0:3:30.212,382.285,48.677,0,0.000885,0,0
0:3:31.498,384.277,48.9252,0,0.000885,0,0
0:3:32.778,387.151,49.2906,0,0.000885,0,0
0:3:34.088,389.731,49.6216,0,0.000885,0,0
0:3:35.372,392.547,49.9801,0,0.000885,0,0
0:3:36.658,394.895,50.2766,0,0.000885,0,0
0:3:37.958,397.475,50.6075,0,0.000885,0,0
0:3:39.263,399.877,50.9109,0,0.000885,0,0
0:3:40.560,402.106,51.2005,0,0.000885,0,0
0:3:41.863,405.1,51.5797,0,0.000885,0,0
0:3:43.143,407.737,51.9175,0,0.000885,0,0
0:3:44.448,410.024,52.2071,0,0.000885,0,0
0:3:45.754,412.079,52.4691,0,0.000885,0,0
0:3:47.039,415.13,52.8552,0,0.000885,0,0
0:3:48.335,417.71,53.1862,0,0.000885,0,0
0:3:49.630,420.17,53.4964,0,0.000885,0,0
0:3:50.915,422.577,53.8067,0,0.000885,0,0
0:3:52.199,425.335,54.1583,0,0.000885,0,0
0:3:53.493,427.972,54.4893,0,0.000885,0,0
0:3:54.792,430.437,54.8064,0,0.000885,0,0
0:3:56.076,432.607,55.0822,0,0.000885,0,0
0:3:57.366,435.597,55.4614,0,0.000885,0,0
0:3:58.661,437.767,55.7372,0,0.000885,0,0
0:3:59.957,440.347,56.0682,0,0.000885,0,0
0:4:1.250,442.869,56.3853,0,0.000885,0,0
0:4:2.542,445.627,56.737,0,0.000885,0,0
0:4:3.845,448.559,57.1093,0,0.000885,0,0
0:4:5.143,450.787,57.3989,0,0.000885,0,0
0:4:6.428,453.074,57.6884,0,0.000885,0,0
0:4:7.706,455.302,57.9711,0,0.000885,0,0
0:4:9.010,458.118,58.3296,0,0.000885,0,0
0:4:10.299,460.582,58.6399,0,0.000885,0,0
0:4:11.585,463.865,59.0605,0,0.000885,0,0
0:4:12.864,465.804,59.3087,0,0.000885,0,0
0:4:14.168,468.5,59.6534,0,0.000885,0,0
0:4:15.465,470.844,59.9499,0,0.000885,0,0
0:4:16.770,473.896,60.336,0,0.000885,0,0
0:4:18.068,476.009,60.6049,0,0.000885,0,0
0:4:19.369,478.882,60.9703,0,0.000885,0,0
0:4:20.668,480.466,61.1772,0,0.000885,0,0
0:4:21.965,483.984,61.6253,0,0.000885,0,0
0:4:23.263,486.329,61.9218,0,0.000885,0,0
0:4:24.565,488.851,62.2459,0,0.000885,0,0
0:4:25.865,490.848,62.4941,0,0.000885,0,0
0:4:27.158,493.721,62.8595,0,0.000885,0,0
0:4:28.472,495.714,63.1146,0,0.000885,0,0
0:4:29.772,498.703,63.4938,0,0.000885,0,0
0:4:31.066,501.168,63.811,0,0.000885,0,0
0:4:32.357,503.69,64.135,0,0.000885,0,0
0:4:33.663,505.976,64.4246,0,0.000885,0,0
0:4:34.958,508.556,64.7487,0,0.000885,0,0
0:4:36.266,510.669,65.0176,0,0.000885,0,0
0:4:37.565,512.604,65.2658,0,0.000885,0,0
0:4:38.869,515.011,65.576,0,0.000885,0,0
0:4:40.170,516.594,65.776,0,0.000885,0,0
0:4:41.472,517.826,65.9346,0,0.000885,0,0
0:4:42.768,519.641,66.1621,0,0.000885,0,0
0:4:44.072,520.291,66.2448,0,0.000885,0,0
0:4:45.369,518.938,66.0725,0,0.000885,0,0
0:4:46.664,516.243,65.7277,0,0.000885,0,0
0:4:47.969,517.355,65.8725,0,0.000885,0,0
0:4:49.271,519.468,66.1414,0,0.000885,0,0
0:4:50.573,517.884,65.9415,0,0.000885,0,0
0:4:51.866,516.185,65.7208,0,0.000885,0,0
0:4:53.169,514.366,65.4933,0,0.000885,0,0
0:4:54.471,515.891,65.6864,0,0.000885,0,0
0:4:55.767,518,65.9552,0,0.000885,0,0
0:4:57.071,519.468,66.1414,0,0.000885,0,0
0:4:58.376,518.058,65.9621,0,0.000885,0,0
0:4:59.675,504.744,64.266,0,0.000885,0,0
0:5:0.972,505.038,64.3005,0,0.000885,0,0
0:5:2.267,499.584,63.611,0,0.000885,0,0
0:5:3.573,495.599,63.1008,0,0.000885,0,0
0:5:4.872,483.984,61.6253,0,0.000885,0,0
0:5:6.173,468.442,59.6465,0,0.000885,0,0
0:5:7.470,426.215,54.2686,0,0.000885,0,0
0:5:8.772,399.646,50.8833,0,0.000885,0,0
0:5:10.067,368.206,46.8843,0,0.000885,0,0
0:5:10.174,368.206,46.8843,0,0.000885,0,0