File: DataFile2021-07-25_062633.csv
Test ID:,Date Tested:,Time:,Test Type:,Diameter Avg. (mm):,Cyl. Corr. Factor:,Height (mm):,Age (days):,Weight (kN):,Break Type:,Ramp Rate (MPa/s):,Load at Break (kN):,Stress at Break (MPa):
12,7/25/2021,06:26,Cylinder,150,1,300,0,3.89,3,0.31,525.1,29.72
Sample Time,Load (kN),Stress (MPa),Long. Strain,Trans. Strain,Chan1 Deflection (mm),Chan2 Deflection (mm)
0:0:12.688,6.57002,0.372317,0,0.000885,0,0
0:0:13.088,9.14999,0.517107,0,0.000885,0,0
0:0:13.484,11.8456,0.668791,0,0.000885,0,0
0:0:13.880,12.2593,0.69637,0,0.000885,0,0
0:0:14.278,16.0714,0.910108,0,0.000885,0,0
0:0:14.677,18.4156,1.04111,0,0.000885,0,0
0:0:15.076,19.2386,1.08937,0,0.000885,0,0
0:0:15.472,21.347,1.20658,0,0.000885,0,0
0:0:15.869,23.6378,1.33758,0,0.000885,0,0
0:0:16.268,26.4536,1.49616,0,0.000885,0,0
0:0:16.667,28.0371,1.58579,0,0.000885,0,0
0:0:17.065,30.7906,1.74437,0,0.000885,0,0
0:0:17.460,33.5485,1.89606,0,0.000885,0,0
0:0:17.860,36.5377,2.06843,0,0.000885,0,0
0:0:18.262,38.7663,2.19253,0,0.000885,0,0
0:0:18.668,41.8177,2.3649,0,0.000885,0,0
0:0:19.073,44.8069,2.53727,0,0.000885,0,0
0:0:19.478,47.8584,2.70964,0,0.000885,0,0
0:0:19.879,50.5585,2.86132,0,0.000885,0,0
0:0:20.280,52.4935,2.97164,0,0.000885,0,0
0:0:20.676,54.9533,3.10954,0,0.000885,0,0
0:0:21.073,57.8892,3.27501,0,0.000885,0,0
0:0:21.472,61.1719,3.46117,0,0.000885,0,0
0:0:21.871,63.1069,3.57148,0,0.000885,0,0
0:0:22.270,65.5712,3.70938,0,0.000885,0,0
0:0:22.668,67.7998,3.83349,0,0.000885,0,0
0:0:23.072,70.0284,3.96449,0,0.000885,0,0
0:0:23.477,72.0834,4.0817,0,0.000885,0,0
0:0:23.881,74.6056,4.21959,0,0.000885,0,0
0:0:24.284,77.1233,4.36438,0,0.000885,0,0
0:0:24.681,79.8812,4.52296,0,0.000885,0,0
0:0:25.078,82.4033,4.66086,0,0.000885,0,0
0:0:25.479,84.9254,4.80565,0,0.000885,0,0
0:0:25.879,87.3319,4.94354,0,0.000885,0,0
0:0:26.274,89.1468,5.04696,0,0.000885,0,0
0:0:26.672,91.5533,5.17796,0,0.000885,0,0
0:0:27.071,93.5461,5.29517,0,0.000885,0,0
0:0:27.471,96.5398,5.46065,0,0.000885,0,0
0:0:27.869,98.7105,5.58475,0,0.000885,0,0
0:0:28.275,100.939,5.70886,0,0.000885,0,0
0:0:28.679,103.168,5.83986,0,0.000885,0,0
0:0:29.082,106.335,6.01912,0,0.000885,0,0
0:0:29.486,109.088,6.17081,0,0.000885,0,0
0:0:29.884,111.379,6.30181,0,0.000885,0,0
0:0:30.280,114.132,6.46039,0,0.000885,0,0
0:0:30.679,117.362,6.63965,0,0.000885,0,0
0:0:31.081,120,6.79134,0,0.000885,0,0
0:0:31.477,122.402,6.92923,0,0.000885,0,0
0:0:31.874,124.457,7.03955,0,0.000885,0,0
0:0:32.273,126.921,7.18434,0,0.000885,0,0
0:0:32.672,129.207,7.30844,0,0.000885,0,0
0:0:33.073,131.436,7.43944,0,0.000885,0,0
0:0:33.479,133.843,7.57044,0,0.000885,0,0
0:0:33.884,135.951,7.69455,0,0.000885,0,0
0:0:34.288,138.357,7.83244,0,0.000885,0,0
0:0:34.690,140.937,7.97723,0,0.000885,0,0
0:0:35.089,143.402,8.11513,0,0.000885,0,0
0:0:35.487,146.04,8.26681,0,0.000885,0,0
0:0:35.882,147.565,8.34955,0,0.000885,0,0
0:0:36.281,151.026,8.5495,0,0.000885,0,0
0:0:36.681,154.251,8.72876,0,0.000885,0,0
0:0:37.079,157.24,8.90113,0,0.000885,0,0
0:0:37.476,159.647,9.03213,0,0.000885,0,0
0:0:37.874,162.284,9.18382,0,0.000885,0,0
0:0:38.276,165.336,9.35619,0,0.000885,0,0
0:0:38.684,168.094,9.51477,0,0.000885,0,0
0:0:39.088,170.732,9.65955,0,0.000885,0,0
0:0:39.492,173.018,9.79056,0,0.000885,0,0
0:0:39.889,175.425,9.92845,0,0.000885,0,0
0:0:40.289,177.889,10.0663,0,0.000885,0,0
0:0:40.690,180.117,10.1905,0,0.000885,0,0
0:0:41.086,182.226,10.3146,0,0.000885,0,0
0:0:41.484,184.223,10.4249,0,0.000885,0,0
0:0:41.881,186.625,10.5628,0,0.000885,0,0
0:0:42.280,188.974,10.6938,0,0.000885,0,0
0:0:42.682,191.202,10.8179,0,0.000885,0,0
0:0:43.077,193.84,10.9696,0,0.000885,0,0
0:0:43.480,196.536,11.1212,0,0.000885,0,0
0:0:43.882,199.058,11.266,0,0.000885,0,0
0:0:44.283,201.58,11.4039,0,0.000885,0,0
0:0:44.684,204.516,11.5763,0,0.000885,0,0
0:0:45.077,206.157,11.6659,0,0.000885,0,0
0:0:45.471,208.737,11.8107,0,0.000885,0,0
0:0:45.870,211.553,11.9693,0,0.000885,0,0
0:0:46.267,214.191,12.121,0,0.000885,0,0
0:0:46.661,216.771,12.2658,0,0.000885,0,0
0:0:47.054,218.941,12.3899,0,0.000885,0,0
0:0:47.449,221.584,12.5416,0,0.000885,0,0
0:0:47.848,224.222,12.6864,0,0.000885,0,0
0:0:48.243,226.272,12.8036,0,0.000885,0,0
0:0:48.648,228.501,12.9277,0,0.000885,0,0
0:0:49.050,231.023,13.0725,0,0.000885,0,0
0:0:49.451,233.665,13.2241,0,0.000885,0,0
0:0:49.851,236.125,13.362,0,0.000885,0,0
0:0:50.247,238.354,13.4861,0,0.000885,0,0
0:0:50.640,240.644,13.6171,0,0.000885,0,0
0:0:51.034,242.637,13.7275,0,0.000885,0,0
0:0:51.440,244.981,13.8654,0,0.000885,0,0
0:0:51.838,247.624,14.0101,0,0.000885,0,0
0:0:52.242,249.91,14.1411,0,0.000885,0,0
0:0:52.635,252.316,14.279,0,0.000885,0,0
0:0:53.038,254.425,14.3963,0,0.000885,0,0
0:0:53.440,257.183,14.5548,0,0.000885,0,0
0:0:53.842,259.589,14.6927,0,0.000885,0,0
0:0:54.242,262.401,14.8513,0,0.000885,0,0
0:0:54.637,265.158,15.003,0,0.000885,0,0
0:0:55.041,267.387,15.134,0,0.000885,0,0
0:0:55.441,270.087,15.2857,0,0.000885,0,0
0:0:55.836,271.964,15.3891,0,0.000885,0,0
0:0:56.240,274.776,15.5477,0,0.000885,0,0
0:0:56.634,277.24,15.6856,0,0.000885,0,0
0:0:57.040,279.882,15.8373,0,0.000885,0,0
0:0:57.438,282.111,15.9614,0,0.000885,0,0
0:0:57.843,284.219,16.0855,0,0.000885,0,0
0:0:58.247,286.626,16.2165,0,0.000885,0,0
0:0:58.649,289.384,16.375,0,0.000885,0,0
0:0:59.051,291.963,16.5198,0,0.000885,0,0
0:0:59.450,294.601,16.6715,0,0.000885,0,0
0:0:59.844,297.59,16.837,0,0.000885,0,0
0:1:0.237,298.471,16.8922,0,0.000885,0,0
0:1:0.634,301.287,17.0507,0,0.000885,0,0
0:1:1.040,303.4,17.1679,0,0.000885,0,0
0:1:1.435,306.095,17.3196,0,0.000885,0,0
0:1:1.838,308.266,17.4437,0,0.000885,0,0
0:1:2.240,310.379,17.5609,0,0.000885,0,0
0:1:2.640,312.723,17.6988,0,0.000885,0,0
0:1:3.037,315.01,17.8229,0,0.000885,0,0
0:1:3.441,317.71,17.9815,0,0.000885,0,0
0:1:3.842,319.881,18.0987,0,0.000885,0,0
0:1:4.242,322.46,18.2504,0,0.000885,0,0
0:1:4.640,325.218,18.4021,0,0.000885,0,0
0:1:5.038,327.62,18.54,0,0.000885,0,0
0:1:5.440,330.845,18.7193,0,0.000885,0,0
0:1:5.834,333.897,18.8916,0,0.000885,0,0
0:1:6.230,336.597,19.0502,0,0.000885,0,0
0:1:6.638,339.408,19.2088,0,0.000885,0,0
0:1:7.031,342.344,19.3743,0,0.000885,0,0
0:1:7.436,344.924,19.5191,0,0.000885,0,0
0:1:7.841,347.446,19.6638,0,0.000885,0,0
0:1:8.241,349.733,19.788,0,0.000885,0,0
0:1:8.647,352.197,19.9327,0,0.000885,0,0
0:1:9.048,354.541,20.0637,0,0.000885,0,0
0:1:9.448,357.241,20.2154,0,0.000885,0,0
0:1:9.844,359.118,20.3188,0,0.000885,0,0
0:1:10.242,361.698,20.4705,0,0.000885,0,0
0:1:10.635,364.514,20.6291,0,0.000885,0,0
0:1:11.038,366.916,20.7601,0,0.000885,0,0
0:1:11.435,369.558,20.9118,0,0.000885,0,0
0:1:11.842,372.547,21.0842,0,0.000885,0,0
0:1:12.236,375.07,21.2221,0,0.000885,0,0
0:1:12.640,377.062,21.3393,0,0.000885,0,0
0:1:13.042,378.824,21.4358,0,0.000885,0,0
0:1:13.445,381.697,21.6013,0,0.000885,0,0
0:1:13.844,383.397,21.6978,0,0.000885,0,0
0:1:14.247,385.567,21.8219,0,0.000885,0,0
0:1:14.640,387.387,21.9184,0,0.000885,0,0
0:1:15.035,390.082,22.077,0,0.000885,0,0
0:1:15.443,392.898,22.2356,0,0.000885,0,0
0:1:15.837,395.714,22.3942,0,0.000885,0,0
0:1:16.240,398.356,22.539,0,0.000885,0,0
0:1:16.644,401.23,22.7044,0,0.000885,0,0
0:1:17.041,403.752,22.8492,0,0.000885,0,0
0:1:17.438,406.505,23.0009,0,0.000885,0,0
0:1:17.841,409.085,23.1526,0,0.000885,0,0
0:1:18.244,411.434,23.2836,0,0.000885,0,0
0:1:18.647,414.129,23.4353,0,0.000885,0,0
0:1:19.048,416.358,23.5594,0,0.000885,0,0
0:1:19.449,419,23.7111,0,0.000885,0,0
0:1:19.842,420.526,23.7938,0,0.000885,0,0
0:1:20.236,423.048,23.9386,0,0.000885,0,0
0:1:20.643,425.041,24.0489,0,0.000885,0,0
0:1:21.042,427.443,24.1868,0,0.000885,0,0
0:1:21.444,430.259,24.3454,0,0.000885,0,0
0:1:21.837,432.665,24.4833,0,0.000885,0,0
0:1:22.242,435.187,24.6281,0,0.000885,0,0
0:1:22.640,438.177,24.7935,0,0.000885,0,0
0:1:23.045,440.699,24.9383,0,0.000885,0,0
0:1:23.450,442.696,25.0487,0,0.000885,0,0
0:1:23.851,444.044,25.1245,0,0.000885,0,0
0:1:24.252,446.566,25.2693,0,0.000885,0,0
0:1:24.652,448.852,25.4003,0,0.000885,0,0
0:1:25.045,452.371,25.6002,0,0.000885,0,0
0:1:25.438,455.48,25.7726,0,0.000885,0,0
0:1:25.844,458.647,25.9519,0,0.000885,0,0
0:1:26.242,460.934,26.0829,0,0.000885,0,0
0:1:26.636,463.282,26.2139,0,0.000885,0,0
0:1:27.040,465.862,26.3656,0,0.000885,0,0
0:1:27.444,468.322,26.5034,0,0.000885,0,0
0:1:27.841,470.844,26.6413,0,0.000885,0,0
0:1:28.238,472.197,26.7241,0,0.000885,0,0
0:1:28.641,474.95,26.8758,0,0.000885,0,0
0:1:29.044,477.414,27.0137,0,0.000885,0,0
0:1:29.444,479.234,27.1171,0,0.000885,0,0
0:1:29.844,481.698,27.2619,0,0.000885,0,0
0:1:30.239,484.687,27.4273,0,0.000885,0,0
0:1:30.644,487.267,27.5721,0,0.000885,0,0
0:1:31.046,489.144,27.6825,0,0.000885,0,0
0:1:31.445,490.728,27.7721,0,0.000885,0,0
0:1:31.841,492.899,27.8893,0,0.000885,0,0
0:1:32.244,494.54,27.9858,0,0.000885,0,0
0:1:32.638,496.653,28.103,0,0.000885,0,0
0:1:33.040,498.703,28.2202,0,0.000885,0,0
0:1:33.444,501.404,28.3719,0,0.000885,0,0
0:1:33.845,504.744,28.565,0,0.000885,0,0
0:1:34.247,506.741,28.6753,0,0.000885,0,0
0:1:34.640,509.143,28.8132,0,0.000885,0,0
0:1:35.038,511.723,28.958,0,0.000885,0,0
0:1:35.443,514.601,29.1235,0,0.000885,0,0
0:1:35.839,517.239,29.2682,0,0.000885,0,0
0:1:36.241,519.761,29.413,0,0.000885,0,0
0:1:36.639,521.812,29.5302,0,0.000885,0,0
0:1:37.045,523.338,29.613,0,0.000885,0,0
0:1:37.439,524.041,29.6544,0,0.000885,0,0
0:1:37.830,524.454,29.675,0,0.000885,0,0
0:1:38.232,525.041,29.7095,0,0.000885,0,0
0:1:38.634,525.099,29.7164,0,0.000885,0,0
0:1:39.034,524.748,29.6957,0,0.000885,0,0
0:1:39.434,523.338,29.613,0,0.000885,0,0
0:1:39.838,520.464,29.4544,0,0.000885,0,0
0:1:40.242,517.181,29.2682,0,0.000885,0,0
0:1:40.639,514.014,29.089,0,0.000885,0,0
0:1:41.042,510.554,28.889,0,0.000885,0,0
0:1:41.444,507.386,28.7098,0,0.000885,0,0
0:1:41.845,502.049,28.4133,0,0.000885,0,0
0:1:42.243,493.37,27.9169,0,0.000885,0,0
0:1:42.638,479.234,27.1171,0,0.000885,0,0
0:1:43.039,461.463,26.1104,0,0.000885,0,0
0:1:43.442,445.743,25.221,0,0.000885,0,0
0:1:43.842,422.692,23.9179,0,0.000885,0,0
0:1:44.242,402.226,22.7596,0,0.000885,0,0
0:1:44.640,391.786,22.1735,0,0.000885,0,0
0:1:45.043,385.625,21.8219,0,0.000885,0,0
0:1:45.447,379.175,21.4565,0,0.000885,0,0
0:1:45.842,374.367,21.1876,0,0.000885,0,0
0:1:46.235,368.62,20.8566,0,0.000885,0,0
0:1:46.356,368.62,20.8566,0,0.000885,0,0