File: DataFile2021-06-07_045215.csv
Test ID:,Date Tested:,Time:,Test Type:,Diameter Avg. (mm):,Cyl. Corr. Factor:,Height (mm):,Age (days):,Weight (kN):,Break Type:,Ramp Rate (MPa/s):,Load at Break (kN):,Stress at Break (MPa):
12,6/7/2021,04:52,Cylinder,100,1,200,0,3.6,3,0.25,655.77,83.5
Sample Time,Load (kN),Stress (MPa),Long. Strain,Trans. Strain,Chan1 Deflection (mm),Chan2 Deflection (mm)
0:0:12.801,5.04428,0.641212,0,0.000885,0,0
0:0:14.313,8.62065,1.09627,0,0.000885,0,0
0:0:15.809,10.262,1.31,0,0.000885,0,0
0:0:17.314,12.9621,1.64785,0,0.000885,0,0
0:0:18.817,16.3027,2.07532,0,0.000885,0,0
0:0:20.324,19.8257,2.52348,0,0.000885,0,0
0:0:21.824,23.0507,2.93717,0,0.000885,0,0
0:0:23.316,26.0399,3.31638,0,0.000885,0,0
0:0:24.830,29.3271,3.73696,0,0.000885,0,0
0:0:26.320,31.6713,4.03343,0,0.000885,0,0
0:0:27.822,34.4871,4.39196,0,0.000885,0,0
0:0:29.339,37.3606,4.75738,0,0.000885,0,0
0:0:30.831,40.3498,5.13659,0,0.000885,0,0
0:0:32.323,42.9921,5.47444,0,0.000885,0,0
0:0:33.832,46.5684,5.92949,0,0.000885,0,0
0:0:35.332,49.7356,6.32939,0,0.000885,0,0
0:0:36.824,52.4356,6.67413,0,0.000885,0,0
0:0:38.322,55.2469,7.03265,0,0.000885,0,0
0:0:39.837,58.1205,7.39807,0,0.000885,0,0
0:0:41.329,61.2876,7.80487,0,0.000885,0,0
0:0:42.824,63.872,8.12892,0,0.000885,0,0
0:0:44.333,67.2126,8.55639,0,0.000885,0,0
0:0:45.833,70.0284,8.91492,0,0.000885,0,0
0:0:47.325,73.0798,9.30792,0,0.000885,0,0
0:0:48.827,75.6598,9.63198,0,0.000885,0,0
0:0:50.337,78.8269,10.0388,0,0.000885,0,0
0:0:51.828,81.9941,10.4387,0,0.000885,0,0
0:0:53.321,84.9254,10.811,0,0.000885,0,0
0:0:54.836,87.3898,11.1281,0,0.000885,0,0
0:0:56.329,90.379,11.5073,0,0.000885,0,0
0:0:57.822,93.5461,11.9141,0,0.000885,0,0
0:0:59.337,96.5976,12.3002,0,0.000885,0,0
0:1:0.830,99.529,12.6726,0,0.000885,0,0
0:1:2.325,102.287,13.0242,0,0.000885,0,0
0:1:3.832,104.982,13.3689,0,0.000885,0,0
0:1:5.334,108.385,13.8033,0,0.000885,0,0
0:1:6.828,111.437,14.1894,0,0.000885,0,0
0:1:8.320,113.723,14.479,0,0.000885,0,0
0:1:9.836,117.242,14.9271,0,0.000885,0,0
0:1:11.329,120.293,15.3133,0,0.000885,0,0
0:1:12.821,122.931,15.6511,0,0.000885,0,0
0:1:14.335,126.276,16.0786,0,0.000885,0,0
0:1:15.827,128.62,16.375,0,0.000885,0,0
0:1:17.315,131.142,16.6991,0,0.000885,0,0
0:1:18.826,135.07,17.1955,0,0.000885,0,0
0:1:20.328,137.592,17.5196,0,0.000885,0,0
0:1:21.820,140.115,17.8367,0,0.000885,0,0
0:1:23.325,143.46,18.2642,0,0.000885,0,0
0:1:24.838,146.8,18.6917,0,0.000885,0,0
0:1:26.331,149.852,19.0778,0,0.000885,0,0
0:1:27.822,152.783,19.4501,0,0.000885,0,0
0:1:29.333,155.95,19.8569,0,0.000885,0,0
0:1:30.829,158.472,20.1741,0,0.000885,0,0
0:1:32.329,161.582,20.574,0,0.000885,0,0
0:1:33.838,164.046,20.8842,0,0.000885,0,0
0:1:35.338,166.742,21.229,0,0.000885,0,0
0:1:36.831,170.202,21.6702,0,0.000885,0,0
0:1:38.331,173.138,22.0425,0,0.000885,0,0
0:1:39.841,175.482,22.3459,0,0.000885,0,0
0:1:41.335,178.943,22.7803,0,0.000885,0,0
0:1:42.828,181.523,23.1112,0,0.000885,0,0
0:1:44.338,184.806,23.5318,0,0.000885,0,0
0:1:45.838,187.973,23.9317,0,0.000885,0,0
0:1:47.327,190.557,24.2627,0,0.000885,0,0
0:1:48.834,193.84,24.6832,0,0.000885,0,0
0:1:50.318,196.714,25.0487,0,0.000885,0,0
0:1:51.807,199.529,25.4072,0,0.000885,0,0
0:1:53.315,202.225,25.745,0,0.000885,0,0
0:1:54.816,205.334,26.1449,0,0.000885,0,0
0:1:56.318,208.501,26.5448,0,0.000885,0,0
0:1:57.809,211.202,26.8896,0,0.000885,0,0
0:1:59.311,213.955,27.2412,0,0.000885,0,0
0:2:0.809,217.416,27.6825,0,0.000885,0,0
0:2:2.329,219.822,27.9858,0,0.000885,0,0
0:2:3.828,222.754,28.365,0,0.000885,0,0
0:2:5.326,225.685,28.7373,0,0.000885,0,0
0:2:6.826,228.972,29.151,0,0.000885,0,0
0:2:8.327,231.61,29.4889,0,0.000885,0,0
0:2:9.832,235.013,29.9232,0,0.000885,0,0
0:2:11.324,237.886,30.2887,0,0.000885,0,0
0:2:12.813,240.996,30.6817,0,0.000885,0,0
0:2:14.315,243.046,30.9437,0,0.000885,0,0
0:2:15.803,246.565,31.3918,0,0.000885,0,0
0:2:17.284,249.616,31.7848,0,0.000885,0,0
0:2:18.775,252.374,32.1365,0,0.000885,0,0
0:2:20.271,255.306,32.5088,0,0.000885,0,0
0:2:21.751,258.295,32.888,0,0.000885,0,0
0:2:23.242,261.231,33.2603,0,0.000885,0,0
0:2:24.739,263.459,33.543,0,0.000885,0,0
0:2:26.231,267.036,33.998,0,0.000885,0,0
0:2:27.721,270.087,34.391,0,0.000885,0,0
0:2:29.227,273.192,34.7841,0,0.000885,0,0
0:2:30.722,275.95,35.1357,0,0.000885,0,0
0:2:32.213,278.944,35.5149,0,0.000885,0,0
0:2:33.722,281.466,35.8389,0,0.000885,0,0
0:2:35.228,284.922,36.2802,0,0.000885,0,0
0:2:36.718,287.386,36.5905,0,0.000885,0,0
0:2:38.217,290.496,36.9904,0,0.000885,0,0
0:2:39.715,293.489,37.3696,0,0.000885,0,0
0:2:41.224,296.3,37.7281,0,0.000885,0,0
0:2:42.717,299.588,38.1418,0,0.000885,0,0
0:2:44.222,302.11,38.4659,0,0.000885,0,0
0:2:45.728,305.157,38.852,0,0.000885,0,0
0:2:47.219,308.444,39.2725,0,0.000885,0,0
0:2:48.731,311.26,39.6311,0,0.000885,0,0
0:2:50.226,313.72,39.9413,0,0.000885,0,0
0:2:51.730,317.18,40.3826,0,0.000885,0,0
0:2:53.219,320.468,40.8032,0,0.000885,0,0
0:2:54.722,322.812,41.0996,0,0.000885,0,0
0:2:56.214,325.921,41.4995,0,0.000885,0,0
0:2:57.723,328.737,41.8581,0,0.000885,0,0
0:2:59.232,331.668,42.2304,0,0.000885,0,0
0:3:0.722,334.778,42.6234,0,0.000885,0,0
0:3:2.218,337.829,43.0164,0,0.000885,0,0
0:3:3.718,340.703,43.3818,0,0.000885,0,0
0:3:5.225,343.87,43.7817,0,0.000885,0,0
0:3:6.725,346.45,44.1127,0,0.000885,0,0
0:3:8.218,349.733,44.5263,0,0.000885,0,0
0:3:9.723,352.664,44.9056,0,0.000885,0,0
0:3:11.237,355.658,45.2848,0,0.000885,0,0
0:3:12.726,358.06,45.5881,0,0.000885,0,0
0:3:14.225,361.698,46.0501,0,0.000885,0,0
0:3:15.725,363.985,46.3466,0,0.000885,0,0
0:3:17.218,367.21,46.7533,0,0.000885,0,0
0:3:18.719,369.91,47.0981,0,0.000885,0,0
0:3:20.220,373.37,47.5394,0,0.000885,0,0
0:3:21.732,376.244,47.9048,0,0.000885,0,0
0:3:23.235,379.175,48.2771,0,0.000885,0,0
0:3:24.733,381.991,48.6356,0,0.000885,0,0
0:3:26.221,384.513,48.9597,0,0.000885,0,0
0:3:27.735,387.565,49.3458,0,0.000885,0,0
0:3:29.243,390.318,49.6974,0,0.000885,0,0
0:3:30.735,394.015,50.1663,0,0.000885,0,0
0:3:32.239,396.772,50.5179,0,0.000885,0,0
0:3:33.736,399.41,50.8557,0,0.000885,0,0
0:3:35.224,403.222,51.3384,0,0.000885,0,0
0:3:36.724,405.335,51.6073,0,0.000885,0,0
0:3:38.227,408.734,52.0416,0,0.000885,0,0
0:3:39.735,411.549,52.4002,0,0.000885,0,0
0:3:41.224,414.365,52.7587,0,0.000885,0,0
0:3:42.724,417.297,53.131,0,0.000885,0,0
0:3:44.234,419.881,53.4619,0,0.000885,0,0
0:3:45.731,423.222,53.8894,0,0.000885,0,0
0:3:47.230,425.859,54.2204,0,0.000885,0,0
0:3:48.730,428.795,54.5927,0,0.000885,0,0
0:3:50.228,431.9,54.9926,0,0.000885,0,0
0:3:51.720,435.067,55.3925,0,0.000885,0,0
0:3:53.223,438.003,55.7648,0,0.000885,0,0
0:3:54.730,440.819,56.1233,0,0.000885,0,0
0:3:56.243,443.924,56.5232,0,0.000885,0,0
0:3:57.721,446.682,56.8749,0,0.000885,0,0
0:3:59.228,449.204,57.192,0,0.000885,0,0
0:4:0.738,452.78,57.6471,0,0.000885,0,0
0:4:2.236,455.422,57.9849,0,0.000885,0,0
0:4:3.745,458.354,58.3572,0,0.000885,0,0
0:4:5.241,461.757,58.7916,0,0.000885,0,0
0:4:6.742,464.101,59.0881,0,0.000885,0,0
0:4:8.241,467.152,59.4811,0,0.000885,0,0
0:4:9.744,470.199,59.8672,0,0.000885,0,0
0:4:11.238,473.193,60.2464,0,0.000885,0,0
0:4:12.729,476.418,60.6601,0,0.000885,0,0
0:4:14.238,478.824,60.9634,0,0.000885,0,0
0:4:15.726,481.756,61.3358,0,0.000885,0,0
0:4:17.225,485.159,61.7701,0,0.000885,0,0
0:4:18.724,487.796,62.108,0,0.000885,0,0
0:4:20.231,491.021,62.5217,0,0.000885,0,0
0:4:21.730,493.837,62.8802,0,0.000885,0,0
0:4:23.221,496.417,63.2042,0,0.000885,0,0
0:4:24.720,499.411,63.5835,0,0.000885,0,0
0:4:26.203,502.342,63.9627,0,0.000885,0,0
0:4:27.685,505.273,64.335,0,0.000885,0,0
0:4:29.185,508.383,64.728,0,0.000885,0,0
0:4:30.674,511.372,65.1072,0,0.000885,0,0
0:4:32.154,513.894,65.4312,0,0.000885,0,0
0:4:33.645,516.888,65.8105,0,0.000885,0,0
0:4:35.136,520.113,66.2241,0,0.000885,0,0
0:4:36.618,522.751,66.562,0,0.000885,0,0
0:4:38.136,525.918,66.9619,0,0.000885,0,0
0:4:39.640,529.263,67.3894,0,0.000885,0,0
0:4:41.130,532.194,67.7617,0,0.000885,0,0
0:4:42.633,534.658,68.0719,0,0.000885,0,0
0:4:44.133,537.59,68.4512,0,0.000885,0,0
0:4:45.631,540.583,68.8304,0,0.000885,0,0
0:4:47.143,543.457,69.1958,0,0.000885,0,0
0:4:48.650,546.624,69.5957,0,0.000885,0,0
0:4:50.148,549.44,69.9542,0,0.000885,0,0
0:4:51.638,552.136,70.2989,0,0.000885,0,0
0:4:53.149,555.481,70.7264,0,0.000885,0,0
0:4:54.645,558.47,71.1056,0,0.000885,0,0
0:4:56.138,561.17,71.4504,0,0.000885,0,0
0:4:57.642,564.337,71.8503,0,0.000885,0,0
0:4:59.154,567.504,72.2571,0,0.000885,0,0
0:5:0.643,570.2,72.6018,0,0.000885,0,0
0:5:2.135,573.073,72.9672,0,0.000885,0,0
0:5:3.627,576.298,73.374,0,0.000885,0,0
0:5:5.145,578.589,73.6705,0,0.000885,0,0
0:5:6.637,582.045,74.1117,0,0.000885,0,0
0:5:8.138,584.803,74.4565,0,0.000885,0,0
0:5:9.632,587.677,74.8288,0,0.000885,0,0
0:5:11.126,590.728,75.2149,0,0.000885,0,0
0:5:12.625,593.313,75.5459,0,0.000885,0,0
0:5:14.137,596.836,75.994,0,0.000885,0,0
0:5:15.631,599.829,76.3732,0,0.000885,0,0
0:5:17.131,602.587,76.7249,0,0.000885,0,0
0:5:18.640,605.581,77.1041,0,0.000885,0,0
0:5:20.145,608.223,77.4419,0,0.000885,0,0
0:5:21.633,611.39,77.8418,0,0.000885,0,0
0:5:23.131,614.562,78.2486,0,0.000885,0,0
0:5:24.645,617.204,78.5864,0,0.000885,0,0
0:5:26.133,620.313,78.9794,0,0.000885,0,0
0:5:27.621,622.662,79.2828,0,0.000885,0,0
0:5:29.134,626.416,79.7586,0,0.000885,0,0
0:5:30.636,629.294,80.124,0,0.000885,0,0
0:5:32.135,631.759,80.4411,0,0.000885,0,0
0:5:33.649,635.046,80.8548,0,0.000885,0,0
0:5:35.150,637.804,81.2065,0,0.000885,0,0
0:5:36.640,640.918,81.6063,0,0.000885,0,0
0:5:38.136,644.085,82.0062,0,0.000885,0,0
0:5:39.653,647.256,82.413,0,0.000885,0,0
0:5:41.140,649.778,82.7302,0,0.000885,0,0
0:5:42.636,651.66,82.9715,0,0.000885,0,0
0:5:44.155,655.766,83.4955,0,0.000885,0,0
0:5:45.648,630.998,80.3377,0,0.000885,0,0
0:5:47.133,618.08,78.6968,0,0.000885,0,0
0:5:48.634,591.2,75.277,0,0.000885,0,0
0:5:49.955,526.389,67.0239,0,0.000885,0,0