File: DataFile2021-06-07_053940.csv
Test ID:,Date Tested:,Time:,Test Type:,Diameter Avg. (mm):,Cyl. Corr. Factor:,Height (mm):,Age (days):,Weight (kN):,Break Type:,Ramp Rate (MPa/s):,Load at Break (kN):,Stress at Break (MPa):
12,6/7/2021,05:39,Cylinder,100,1,200,0,3.6,3,0.25,960.24,122.26
Sample Time,Load (kN),Stress (MPa),Long. Strain,Trans. Strain,Chan1 Deflection (mm),Chan2 Deflection (mm)
0:0:10.198,5.63145,0.717055,0,0.000885,0,0
0:0:12.285,8.97206,1.14453,0,0.000885,0,0
0:0:14.373,12.7842,1.62716,0,0.000885,0,0
0:0:16.481,17.5349,2.2339,0,0.000885,0,0
0:0:18.575,20.8221,2.64759,0,0.000885,0,0
0:0:20.665,25.6885,3.26811,0,0.000885,0,0
0:0:22.779,30.2034,3.84727,0,0.000885,0,0
0:0:24.867,33.9577,4.32301,0,0.000885,0,0
0:0:26.979,38.0056,4.84012,0,0.000885,0,0
0:0:29.072,42.1691,5.37102,0,0.000885,0,0
0:0:31.181,46.4528,5.9157,0,0.000885,0,0
0:0:33.277,50.4962,6.43281,0,0.000885,0,0
0:0:35.367,54.2505,6.90855,0,0.000885,0,0
0:0:37.481,58.8856,7.4946,0,0.000885,0,0
0:0:39.571,63.1647,8.03929,0,0.000885,0,0
0:0:41.679,66.919,8.52192,0,0.000885,0,0
0:0:43.777,70.789,9.01145,0,0.000885,0,0
0:0:45.869,75.1883,9.57682,0,0.000885,0,0
0:0:47.979,78.9426,10.0526,0,0.000885,0,0
0:0:50.068,83.2262,10.5972,0,0.000885,0,0
0:0:52.182,87.799,11.1764,0,0.000885,0,0
0:0:54.272,91.6111,11.6659,0,0.000885,0,0
0:0:56.379,96.304,12.2589,0,0.000885,0,0
0:0:58.478,100.058,12.7415,0,0.000885,0,0
0:1:0.567,103.692,13.2035,0,0.000885,0,0
0:1:2.682,108.092,13.7619,0,0.000885,0,0
0:1:4.771,112.491,14.3204,0,0.000885,0,0
0:1:6.880,116.188,14.7961,0,0.000885,0,0
0:1:8.972,120.645,15.3615,0,0.000885,0,0
0:1:11.076,124.866,15.8993,0,0.000885,0,0
0:1:13.175,129.092,16.4371,0,0.000885,0,0
0:1:15.264,133.255,16.968,0,0.000885,0,0
0:1:17.377,137.477,17.5058,0,0.000885,0,0
0:1:19.462,140.937,17.9471,0,0.000885,0,0
0:1:21.569,145.159,18.4848,0,0.000885,0,0
0:1:23.666,149.149,18.9882,0,0.000885,0,0
0:1:25.754,153.548,19.5535,0,0.000885,0,0
0:1:27.870,157.77,20.0913,0,0.000885,0,0
0:1:29.959,162.284,20.6636,0,0.000885,0,0
0:1:32.072,166.039,21.1393,0,0.000885,0,0
0:1:34.160,170.554,21.7185,0,0.000885,0,0
0:1:36.263,174.192,22.1804,0,0.000885,0,0
0:1:38.361,178.472,22.7251,0,0.000885,0,0
0:1:40.448,182.168,23.194,0,0.000885,0,0
0:1:42.562,186.745,23.78,0,0.000885,0,0
0:1:44.651,190.615,24.2695,0,0.000885,0,0
0:1:46.761,195.072,24.8349,0,0.000885,0,0
0:1:48.844,199.178,25.3589,0,0.000885,0,0
0:1:50.948,202.87,25.8278,0,0.000885,0,0
0:1:53.039,206.976,26.3518,0,0.000885,0,0
0:1:55.143,211.317,26.9033,0,0.000885,0,0
0:1:57.252,215.365,27.4204,0,0.000885,0,0
0:1:59.346,219.586,27.9582,0,0.000885,0,0
0:2:1.452,223.399,28.4409,0,0.000885,0,0
0:2:3.546,227.682,28.9925,0,0.000885,0,0
0:2:5.649,231.61,29.4889,0,0.000885,0,0
0:2:7.738,235.836,30.0267,0,0.000885,0,0
0:2:9.845,240.173,30.5782,0,0.000885,0,0
0:2:11.944,243.927,31.0609,0,0.000885,0,0
0:2:14.046,248.148,31.5987,0,0.000885,0,0
0:2:16.149,252.139,32.102,0,0.000885,0,0
0:2:18.251,256.889,32.7087,0,0.000885,0,0
0:2:20.346,260.817,33.2052,0,0.000885,0,0
0:2:22.452,264.749,33.7085,0,0.000885,0,0
0:2:24.545,268.913,34.2394,0,0.000885,0,0
0:2:26.657,273.486,34.8185,0,0.000885,0,0
0:2:28.743,277.24,35.3012,0,0.000885,0,0
0:2:30.845,281.403,35.8321,0,0.000885,0,0
0:2:32.948,285.042,36.294,0,0.000885,0,0
0:2:35.049,289.441,36.8525,0,0.000885,0,0
0:2:37.159,294.308,37.473,0,0.000885,0,0
0:2:39.251,297.946,37.935,0,0.000885,0,0
0:2:41.351,301.345,38.3693,0,0.000885,0,0
0:2:43.446,306.331,39.0036,0,0.000885,0,0
0:2:45.551,310.321,39.5139,0,0.000885,0,0
0:2:47.652,314.071,39.9896,0,0.000885,0,0
0:2:49.747,318.239,40.5205,0,0.000885,0,0
0:2:51.848,322.283,41.0376,0,0.000885,0,0
0:2:53.945,326.975,41.6305,0,0.000885,0,0
0:2:56.055,331.139,42.1614,0,0.000885,0,0
0:2:58.154,335.129,42.6717,0,0.000885,0,0
0:3:0.236,339.35,43.2094,0,0.000885,0,0
0:3:2.343,342.638,43.6231,0,0.000885,0,0
0:3:4.446,347.855,44.2919,0,0.000885,0,0
0:3:6.556,351.903,44.809,0,0.000885,0,0
0:3:8.655,355.658,45.2848,0,0.000885,0,0
0:3:10.750,359.879,45.8226,0,0.000885,0,0
0:3:12.849,363.34,46.2638,0,0.000885,0,0
0:3:14.952,368.268,46.8912,0,0.000885,0,0
0:3:17.059,371.373,47.2842,0,0.000885,0,0
0:3:19.152,376.008,47.8772,0,0.000885,0,0
0:3:21.245,379.527,48.3254,0,0.000885,0,0
0:3:23.349,384.629,48.9735,0,0.000885,0,0
0:3:25.453,389.148,49.5457,0,0.000885,0,0
0:3:27.553,392.84,50.0215,0,0.000885,0,0
0:3:29.656,396.359,50.4627,0,0.000885,0,0
0:3:31.755,400.291,50.966,0,0.000885,0,0
0:3:33.857,405.1,51.5797,0,0.000885,0,0
0:3:35.960,408.854,52.0554,0,0.000885,0,0
0:3:38.059,413.191,52.607,0,0.000885,0,0
0:3:40.150,417.065,53.1034,0,0.000885,0,0
0:3:42.257,422.11,53.7446,0,0.000885,0,0
0:3:44.357,425.859,54.2204,0,0.000885,0,0
0:3:46.460,429.556,54.6961,0,0.000885,0,0
0:3:48.551,433.84,55.2408,0,0.000885,0,0
0:3:50.655,437.474,55.7027,0,0.000885,0,0
0:3:52.759,442.518,56.344,0,0.000885,0,0
0:3:54.851,446.272,56.8197,0,0.000885,0,0
0:3:56.956,450.084,57.3092,0,0.000885,0,0
0:3:59.047,455.009,57.9366,0,0.000885,0,0
0:4:1.156,458.002,58.3159,0,0.000885,0,0
0:4:3.258,462.459,58.8812,0,0.000885,0,0
0:4:5.352,467.032,59.4673,0,0.000885,0,0
0:4:7.453,470.729,59.9361,0,0.000885,0,0
0:4:9.555,475.306,60.5153,0,0.000885,0,0
0:4:11.659,479.291,61.0255,0,0.000885,0,0
0:4:13.756,483.691,61.584,0,0.000885,0,0
0:4:15.862,487.912,62.1218,0,0.000885,0,0
0:4:17.961,491.551,62.5837,0,0.000885,0,0
0:4:20.051,495.011,63.025,0,0.000885,0,0
0:4:22.160,499.878,63.6455,0,0.000885,0,0
0:4:24.262,503.632,64.1212,0,0.000885,0,0
0:4:26.364,507.796,64.6521,0,0.000885,0,0
0:4:28.462,511.666,65.1486,0,0.000885,0,0
0:4:30.566,516.123,65.7139,0,0.000885,0,0
0:4:32.663,520.406,66.2586,0,0.000885,0,0
0:4:34.756,524.512,66.7826,0,0.000885,0,0
0:4:36.859,528.498,67.2928,0,0.000885,0,0
0:4:38.965,533.191,67.8858,0,0.000885,0,0
0:4:41.070,537.003,68.3753,0,0.000885,0,0
0:4:43.159,541.402,68.9338,0,0.000885,0,0
0:4:45.262,545.098,69.4026,0,0.000885,0,0
0:4:47.370,549.498,69.9611,0,0.000885,0,0
0:4:49.463,553.016,70.4093,0,0.000885,0,0
0:4:51.560,557.825,71.0229,0,0.000885,0,0
0:4:53.665,562.046,71.5607,0,0.000885,0,0
0:4:55.753,565.565,72.0088,0,0.000885,0,0
0:4:57.855,570.2,72.6018,0,0.000885,0,0
0:4:59.963,573.838,73.0637,0,0.000885,0,0
0:5:2.072,578.469,73.6498,0,0.000885,0,0
0:5:4.167,582.281,74.1393,0,0.000885,0,0
0:5:6.272,586.796,74.7116,0,0.000885,0,0
0:5:8.368,590.493,75.1873,0,0.000885,0,0
0:5:10.462,594.661,75.7113,0,0.000885,0,0
0:5:12.573,598.651,76.2215,0,0.000885,0,0
0:5:14.669,603.17,76.8007,0,0.000885,0,0
0:5:16.780,606.929,77.2764,0,0.000885,0,0
0:5:18.874,611.862,77.9039,0,0.000885,0,0
0:5:20.979,614.735,78.2693,0,0.000885,0,0
0:5:23.073,619.375,78.8622,0,0.000885,0,0
0:5:25.167,623.481,79.3862,0,0.000885,0,0
0:5:27.279,627.649,79.9171,0,0.000885,0,0
0:5:29.362,632.052,80.4756,0,0.000885,0,0
0:5:31.474,635.811,80.9513,0,0.000885,0,0
0:5:33.568,639.801,81.4616,0,0.000885,0,0
0:5:35.658,643.969,81.9925,0,0.000885,0,0
0:5:37.767,648.195,82.5302,0,0.000885,0,0
0:5:39.871,652.536,83.0818,0,0.000885,0,0
0:5:41.978,656.473,83.5851,0,0.000885,0,0
0:5:44.071,660.579,84.1091,0,0.000885,0,0
0:5:46.178,664.747,84.64,0,0.000885,0,0
0:5:48.269,668.799,85.1571,0,0.000885,0,0
0:5:50.361,673.083,85.7018,0,0.000885,0,0
0:5:52.471,676.841,86.1776,0,0.000885,0,0
0:5:54.566,681.183,86.7292,0,0.000885,0,0
0:5:56.677,684.822,87.1911,0,0.000885,0,0
0:5:58.768,689.634,87.8047,0,0.000885,0,0
0:6:0.861,693.393,88.2874,0,0.000885,0,0
0:6:2.973,697.677,88.8321,0,0.000885,0,0
0:6:5.066,701.903,89.3698,0,0.000885,0,0
0:6:7.174,705.777,89.8594,0,0.000885,0,0
0:6:9.267,710.359,90.4454,0,0.000885,0,0
0:6:11.378,713.94,90.9005,0,0.000885,0,0
0:6:13.469,718.045,91.4245,0,0.000885,0,0
0:6:15.569,722.743,92.0243,0,0.000885,0,0
0:6:17.679,726.145,92.4587,0,0.000885,0,0
0:6:19.771,730.901,93.0585,0,0.000885,0,0
0:6:21.873,735.011,93.5825,0,0.000885,0,0
0:6:23.970,738.707,94.0583,0,0.000885,0,0
0:6:26.078,743.289,94.6374,0,0.000885,0,0
0:6:28.168,747.043,95.1132,0,0.000885,0,0
0:6:30.261,751.269,95.6579,0,0.000885,0,0
0:6:32.371,755.615,96.2094,0,0.000885,0,0
0:6:34.473,759.721,96.7334,0,0.000885,0,0
0:6:36.574,763.422,97.2023,0,0.000885,0,0
0:6:38.674,767.999,97.7814,0,0.000885,0,0
0:6:40.776,772.051,98.2986,0,0.000885,0,0
0:6:42.882,776.335,98.8432,0,0.000885,0,0
0:6:44.976,780.209,99.3397,0,0.000885,0,0
0:6:47.080,783.79,99.7947,0,0.000885,0,0
0:6:49.172,788.545,100.401,0,0.000885,0,0
0:6:51.281,792.126,100.857,0,0.000885,0,0
0:6:53.371,797.468,101.539,0,0.000885,0,0
0:6:55.464,800.987,101.987,0,0.000885,0,0
0:6:57.574,804.688,102.456,0,0.000885,0,0
0:6:59.676,808.562,102.953,0,0.000885,0,0
0:7:1.787,813.317,103.552,0,0.000885,0,0
0:7:3.879,817.307,104.063,0,0.000885,0,0
0:7:5.982,821.769,104.628,0,0.000885,0,0
0:7:8.079,825.35,105.09,0,0.000885,0,0
0:7:10.168,829.104,105.566,0,0.000885,0,0
0:7:12.287,833.917,106.179,0,0.000885,0,0
0:7:14.367,838.027,106.703,0,0.000885,0,0
0:7:16.487,841.844,107.186,0,0.000885,0,0
0:7:18.577,846.127,107.731,0,0.000885,0,0
0:7:20.668,849.766,108.193,0,0.000885,0,0
0:7:22.780,854.699,108.827,0,0.000885,0,0
0:7:24.871,858.867,109.351,0,0.000885,0,0
0:7:26.982,862.741,109.847,0,0.000885,0,0
0:7:29.077,866.909,110.378,0,0.000885,0,0
0:7:31.192,871.135,110.916,0,0.000885,0,0
0:7:33.291,874.832,111.385,0,0.000885,0,0
0:7:35.372,879.409,111.971,0,0.000885,0,0
0:7:37.478,883.403,112.481,0,0.000885,0,0
0:7:39.568,886.984,112.936,0,0.000885,0,0
0:7:41.669,891.619,113.522,0,0.000885,0,0
0:7:43.762,895.494,114.019,0,0.000885,0,0
0:7:45.882,900.191,114.618,0,0.000885,0,0
0:7:47.980,904.123,115.115,0,0.000885,0,0
0:7:50.061,908.233,115.639,0,0.000885,0,0
0:7:52.180,911.988,116.115,0,0.000885,0,0
0:7:54.271,916.156,116.646,0,0.000885,0,0
0:7:56.371,920.502,117.204,0,0.000885,0,0
0:7:58.480,924.727,117.742,0,0.000885,0,0
0:8:0.583,928.188,118.183,0,0.000885,0,0
0:8:2.691,932.708,118.755,0,0.000885,0,0
0:8:4.773,936.76,119.272,0,0.000885,0,0
0:8:6.889,940.986,119.81,0,0.000885,0,0
0:8:8.983,943.864,120.176,0,0.000885,0,0
0:8:11.082,949.731,120.92,0,0.000885,0,0
0:8:13.171,948.85,120.81,0,0.000885,0,0
0:8:15.274,958.183,122.003,0,0.000885,0,0
0:8:17.382,830.456,105.738,0,0.000885,0,0
0:8:19.479,803.513,102.304,0,0.000885,0,0
0:8:21.584,804.336,102.408,0,0.000885,0,0
0:8:22.501,782.909,99.6844,0,0.000885,0,0