File: DataFile2021-06-06_053924.csv
Test ID:,Date Tested:,Time:,Test Type:,Diameter Avg. (mm):,Cyl. Corr. Factor:,Height (mm):,Age (days):,Weight (kN):,Break Type:,Ramp Rate (MPa/s):,Load at Break (kN):,Stress at Break (MPa):
12,6/6/2021,05:39,Cylinder,150,1,300,0,13.39,3,0.25,1743.93,98.68
Sample Time,Load (kN),Stress (MPa),Long. Strain,Trans. Strain,Chan1 Deflection (mm),Chan2 Deflection (mm)
0:0:16.456,5.21776,0.296475,0,0.000885,0,0
0:0:18.141,12.375,0.703265,0,0.000885,0,0
0:0:19.835,19.412,1.09627,0,0.000885,0,0
0:0:21.527,26.6271,1.50995,0,0.000885,0,0
0:0:23.239,35.8349,2.02706,0,0.000885,0,0
0:0:24.936,43.517,2.46143,0,0.000885,0,0
0:0:26.629,50.3227,2.84753,0,0.000885,0,0
0:0:28.342,57.5377,3.25433,0,0.000885,0,0
0:0:30.038,65.0419,3.6818,0,0.000885,0,0
0:0:31.732,72.9597,4.12996,0,0.000885,0,0
0:0:33.445,80.1169,4.53675,0,0.000885,0,0
0:0:35.139,88.1504,4.9918,0,0.000885,0,0
0:0:36.833,95.7168,5.41928,0,0.000885,0,0
0:0:38.545,103.225,5.83986,0,0.000885,0,0
0:0:40.239,110.027,6.22597,0,0.000885,0,0
0:0:41.929,117.478,6.64655,0,0.000885,0,0
0:0:43.644,125.395,7.09471,0,0.000885,0,0
0:0:45.336,133.255,7.54286,0,0.000885,0,0
0:0:47.029,139.821,7.91518,0,0.000885,0,0
0:0:48.745,148.504,8.40471,0,0.000885,0,0
0:0:50.436,155.19,8.78392,0,0.000885,0,0
0:0:52.140,163.05,9.22519,0,0.000885,0,0
0:0:53.846,170.029,9.61819,0,0.000885,0,0
0:0:55.533,178.472,10.1008,0,0.000885,0,0
0:0:57.236,185.571,10.5007,0,0.000885,0,0
0:0:58.944,193.195,10.9351,0,0.000885,0,0
0:1:0.631,200.232,11.3281,0,0.000885,0,0
0:1:2.330,207.741,11.7556,0,0.000885,0,0
0:1:4.037,215.187,12.1761,0,0.000885,0,0
0:1:5.714,222.638,12.5967,0,0.000885,0,0
0:1:7.419,230.614,13.0518,0,0.000885,0,0
0:1:9.130,238.122,13.4724,0,0.000885,0,0
0:1:10.829,245.626,13.8998,0,0.000885,0,0
0:1:12.534,253.838,14.3618,0,0.000885,0,0
0:1:14.232,260.408,14.7341,0,0.000885,0,0
0:1:15.930,268.09,15.1685,0,0.000885,0,0
0:1:17.634,275.305,15.5822,0,0.000885,0,0
0:1:19.336,282.871,16.0096,0,0.000885,0,0
0:1:21.030,289.615,16.3888,0,0.000885,0,0
0:1:22.737,297.711,16.8439,0,0.000885,0,0
0:1:24.423,306.038,17.3196,0,0.000885,0,0
0:1:26.131,313.137,17.7195,0,0.000885,0,0
0:1:27.842,320.699,18.147,0,0.000885,0,0
0:1:29.529,328.034,18.5607,0,0.000885,0,0
0:1:31.238,335.48,18.9813,0,0.000885,0,0
0:1:32.936,342.811,19.4018,0,0.000885,0,0
0:1:34.633,350.026,19.8086,0,0.000885,0,0
0:1:36.330,358.18,20.2706,0,0.000885,0,0
0:1:38.034,365.746,20.6981,0,0.000885,0,0
0:1:39.736,373.486,21.1324,0,0.000885,0,0
0:1:41.432,380.056,21.5047,0,0.000885,0,0
0:1:43.137,388.21,21.9667,0,0.000885,0,0
0:1:44.840,395.834,22.4011,0,0.000885,0,0
0:1:46.524,403.044,22.8079,0,0.000885,0,0
0:1:48.239,411.082,23.2629,0,0.000885,0,0
0:1:49.931,418.177,23.6628,0,0.000885,0,0
0:1:51.628,426.273,24.1248,0,0.000885,0,0
0:1:53.339,432.55,24.4764,0,0.000885,0,0
0:1:55.032,441.522,24.9866,0,0.000885,0,0
0:1:56.734,448.559,25.3865,0,0.000885,0,0
0:1:58.433,456.183,25.814,0,0.000885,0,0
0:2:0.133,462.575,26.1794,0,0.000885,0,0
0:2:1.833,471.609,26.6896,0,0.000885,0,0
0:2:3.536,478.353,27.0688,0,0.000885,0,0
0:2:5.236,485.51,27.4756,0,0.000885,0,0
0:2:6.937,493.014,27.8962,0,0.000885,0,0
0:2:8.640,500.287,28.3099,0,0.000885,0,0
0:2:10.328,508.325,28.7649,0,0.000885,0,0
0:2:12.029,516.358,29.22,0,0.000885,0,0
0:2:13.723,523.458,29.6199,0,0.000885,0,0
0:2:15.439,531.082,30.0542,0,0.000885,0,0
0:2:17.126,538.177,30.4541,0,0.000885,0,0
0:2:18.836,545.628,30.8747,0,0.000885,0,0
0:2:20.530,552.723,31.2746,0,0.000885,0,0
0:2:22.227,560.876,31.7366,0,0.000885,0,0
0:2:23.923,568.323,32.1571,0,0.000885,0,0
0:2:25.636,575.244,32.5501,0,0.000885,0,0
0:2:27.329,583.749,33.0328,0,0.000885,0,0
0:2:29.025,590.964,33.4396,0,0.000885,0,0
0:2:30.743,598.828,33.8877,0,0.000885,0,0
0:2:32.444,605.697,34.2738,0,0.000885,0,0
0:2:34.142,614.264,34.7634,0,0.000885,0,0
0:2:35.828,620.545,35.115,0,0.000885,0,0
0:2:37.551,628.294,35.5563,0,0.000885,0,0
0:2:39.248,636.394,36.0113,0,0.000885,0,0
0:2:40.936,643.32,36.4043,0,0.000885,0,0
0:2:42.647,651.482,36.8663,0,0.000885,0,0
0:2:44.346,658.288,37.2524,0,0.000885,0,0
0:2:46.033,665.979,37.6867,0,0.000885,0,0
0:2:47.745,673.318,38.1004,0,0.000885,0,0
0:2:49.446,680.596,38.5141,0,0.000885,0,0
0:2:51.132,688.638,38.9692,0,0.000885,0,0
0:2:52.848,695.622,39.3622,0,0.000885,0,0
0:2:54.545,703.664,39.8172,0,0.000885,0,0
0:2:56.242,711.062,40.2378,0,0.000885,0,0
0:2:57.953,718.81,40.6791,0,0.000885,0,0
0:2:59.644,725.678,41.0652,0,0.000885,0,0
0:3:1.340,733.716,41.5202,0,0.000885,0,0
0:3:3.053,741.407,41.9546,0,0.000885,0,0
0:3:4.744,748.747,42.3683,0,0.000885,0,0
0:3:6.439,756.727,42.8233,0,0.000885,0,0
0:3:8.151,763.595,43.2094,0,0.000885,0,0
0:3:9.840,771.58,43.6645,0,0.000885,0,0
0:3:11.535,778.212,44.0368,0,0.000885,0,0
0:3:13.247,786.312,44.4988,0,0.000885,0,0
0:3:14.946,793.238,44.8849,0,0.000885,0,0
0:3:16.643,801.4,45.3468,0,0.000885,0,0
0:3:18.352,808.736,45.7674,0,0.000885,0,0
0:3:20.043,816.075,46.1811,0,0.000885,0,0
0:3:21.730,824.233,46.643,0,0.000885,0,0
0:3:23.449,831.043,47.0291,0,0.000885,0,0
0:3:25.138,839.317,47.498,0,0.000885,0,0
0:3:26.847,846.243,47.891,0,0.000885,0,0
0:3:28.557,853.876,48.3185,0,0.000885,0,0
0:3:30.247,861.331,48.739,0,0.000885,0,0
0:3:31.945,869.08,49.1803,0,0.000885,0,0
0:3:33.658,876.473,49.6009,0,0.000885,0,0
0:3:35.343,883.928,50.0215,0,0.000885,0,0
0:3:37.044,891.148,50.4283,0,0.000885,0,0
0:3:38.746,898.603,50.8488,0,0.000885,0,0
0:3:40.438,906.41,51.2901,0,0.000885,0,0
0:3:42.158,913.749,51.7107,0,0.000885,0,0
0:3:43.863,921.32,52.1382,0,0.000885,0,0
0:3:45.548,929.127,52.5794,0,0.000885,0,0
0:3:47.248,936.288,52.9862,0,0.000885,0,0
0:3:48.951,944.389,53.4413,0,0.000885,0,0
0:3:50.637,951.083,53.8205,0,0.000885,0,0
0:3:52.336,958.832,54.2617,0,0.000885,0,0
0:3:54.040,966.283,54.6823,0,0.000885,0,0
0:3:55.736,973.507,55.0891,0,0.000885,0,0
0:3:57.449,981.838,55.558,0,0.000885,0,0
0:3:59.152,988.119,55.9165,0,0.000885,0,0
0:4:0.849,996.691,56.3991,0,0.000885,0,0
0:4:2.550,1003.56,56.7921,0,0.000885,0,0
0:4:4.251,1011.37,57.2334,0,0.000885,0,0
0:4:5.948,1019.47,57.6884,0,0.000885,0,0
0:4:7.655,1026.04,58.0608,0,0.000885,0,0
0:4:9.349,1034.32,58.5296,0,0.000885,0,0
0:4:11.042,1041.65,58.9433,0,0.000885,0,0
0:4:12.754,1049.58,59.3914,0,0.000885,0,0
0:4:14.446,1056.27,59.7707,0,0.000885,0,0
0:4:16.139,1064.08,60.2119,0,0.000885,0,0
0:4:17.850,1071.24,60.6187,0,0.000885,0,0
0:4:19.542,1078.75,61.0462,0,0.000885,0,0
0:4:21.236,1087.38,61.5357,0,0.000885,0,0
0:4:22.955,1093.55,61.8804,0,0.000885,0,0
0:4:24.651,1101.35,62.3217,0,0.000885,0,0
0:4:26.344,1109.22,62.7699,0,0.000885,0,0
0:4:28.060,1116.49,63.1836,0,0.000885,0,0
0:4:29.750,1123.89,63.5972,0,0.000885,0,0
0:4:31.434,1131.29,64.0178,0,0.000885,0,0
0:4:33.144,1139.21,64.466,0,0.000885,0,0
0:4:34.842,1147.14,64.9141,0,0.000885,0,0
0:4:36.532,1154.12,65.3071,0,0.000885,0,0
0:4:38.250,1161.52,65.7277,0,0.000885,0,0
0:4:39.940,1169.21,66.1621,0,0.000885,0,0
0:4:41.639,1176.43,66.5689,0,0.000885,0,0
0:4:43.352,1184.29,67.017,0,0.000885,0,0
0:4:45.035,1191.46,67.4238,0,0.000885,0,0
0:4:46.756,1199.67,67.8858,0,0.000885,0,0
0:4:48.465,1206.78,68.2926,0,0.000885,0,0
0:4:50.153,1214.23,68.7132,0,0.000885,0,0
0:4:51.842,1222.62,69.1889,0,0.000885,0,0
0:4:53.553,1228.73,69.5336,0,0.000885,0,0
0:4:55.237,1237.06,70.0025,0,0.000885,0,0
0:4:56.928,1244.28,70.4093,0,0.000885,0,0
0:4:58.642,1252.38,70.8712,0,0.000885,0,0
0:5:0.347,1259.72,71.2849,0,0.000885,0,0
0:5:2.058,1266.76,71.6848,0,0.000885,0,0
0:5:3.764,1274.4,72.1192,0,0.000885,0,0
0:5:5.448,1281.73,72.5328,0,0.000885,0,0
0:5:7.156,1289.19,72.9534,0,0.000885,0,0
0:5:8.861,1297.35,73.4154,0,0.000885,0,0
0:5:10.546,1304.04,73.7946,0,0.000885,0,0
0:5:12.243,1311.96,74.2427,0,0.000885,0,0
0:5:13.960,1319.36,74.6633,0,0.000885,0,0
0:5:15.645,1326.58,75.0701,0,0.000885,0,0
0:5:17.352,1333.98,75.4907,0,0.000885,0,0
0:5:19.058,1342.31,75.9595,0,0.000885,0,0
0:5:20.744,1349,76.3388,0,0.000885,0,0
0:5:22.449,1356.87,76.78,0,0.000885,0,0
0:5:24.160,1364.85,77.2351,0,0.000885,0,0
0:5:25.855,1371.96,77.635,0,0.000885,0,0
0:5:27.562,1379.7,78.0762,0,0.000885,0,0
0:5:29.259,1386.69,78.4692,0,0.000885,0,0
0:5:30.945,1394.96,78.9381,0,0.000885,0,0
0:5:32.653,1401.19,79.2897,0,0.000885,0,0
0:5:34.349,1409.35,79.7517,0,0.000885,0,0
0:5:36.034,1416.74,80.1722,0,0.000885,0,0
0:5:37.755,1424.2,80.5928,0,0.000885,0,0
0:5:39.460,1432.3,81.0548,0,0.000885,0,0
0:5:41.144,1439.99,81.4891,0,0.000885,0,0
0:5:42.861,1446.74,81.8683,0,0.000885,0,0
0:5:44.558,1454.6,82.3165,0,0.000885,0,0
0:5:46.241,1462.17,82.744,0,0.000885,0,0
0:5:47.946,1469.28,83.1439,0,0.000885,0,0
0:5:49.645,1476.91,83.5782,0,0.000885,0,0
0:5:51.340,1484.61,84.0126,0,0.000885,0,0
0:5:53.053,1491.56,84.4056,0,0.000885,0,0
0:5:54.752,1500.15,84.8883,0,0.000885,0,0
0:5:56.439,1506.75,85.2675,0,0.000885,0,0
0:5:58.148,1514.52,85.7018,0,0.000885,0,0
0:5:59.838,1522.18,86.1362,0,0.000885,0,0
0:6:1.552,1529.77,86.5706,0,0.000885,0,0
0:6:3.265,1537.67,87.0118,0,0.000885,0,0
0:6:4.952,1544.32,87.391,0,0.000885,0,0
0:6:6.654,1552.62,87.8599,0,0.000885,0,0
0:6:8.363,1559.28,88.2391,0,0.000885,0,0
0:6:10.050,1567.63,88.7079,0,0.000885,0,0
0:6:11.746,1574.47,89.0941,0,0.000885,0,0
0:6:13.454,1581.77,89.5077,0,0.000885,0,0
0:6:15.164,1589.78,89.9628,0,0.000885,0,0
0:6:16.851,1597.2,90.3834,0,0.000885,0,0
0:6:18.565,1604.97,90.8246,0,0.000885,0,0
0:6:20.249,1612.15,91.2314,0,0.000885,0,0
0:6:21.950,1619.81,91.6589,0,0.000885,0,0
0:6:23.662,1627.7,92.1071,0,0.000885,0,0
0:6:25.345,1634.53,92.4932,0,0.000885,0,0
0:6:27.046,1642.18,92.9275,0,0.000885,0,0
0:6:28.748,1650.07,93.3757,0,0.000885,0,0
0:6:30.433,1656.84,93.7549,0,0.000885,0,0
0:6:32.134,1664.85,94.21,0,0.000885,0,0
0:6:33.833,1672.21,94.6305,0,0.000885,0,0
0:6:35.519,1679.81,95.058,0,0.000885,0,0
0:6:37.222,1687.94,95.52,0,0.000885,0,0
0:6:38.920,1694.76,95.9061,0,0.000885,0,0
0:6:40.610,1701.83,96.306,0,0.000885,0,0
0:6:42.311,1709.6,96.7403,0,0.000885,0,0
0:6:44.011,1717.32,97.1816,0,0.000885,0,0
0:6:45.695,1721.08,97.3953,0,0.000885,0,0
0:6:47.397,1734.27,98.14,0,0.000885,0,0
0:6:49.099,1740.81,98.5123,0,0.000885,0,0
0:6:50.785,1642.53,92.9482,0,0.000885,0,0
0:6:52.489,1573.34,89.032,0,0.000885,0,0
0:6:54.176,1566.99,88.6735,0,0.000885,0,0
0:6:55.866,1564.87,88.5563,0,0.000885,0,0
0:6:57.568,1504.69,85.1503,0,0.000885,0,0
0:6:59.258,1440.98,81.5443,0,0.000885,0,0
0:7:0.957,1429.01,80.8686,0,0.000885,0,0
0:7:2.369,1390.91,78.7105,0,0.000885,0,0