File: DataFile2021-07-03_074140.csv
Test ID:,Date Tested:,Time:,Test Type:,Diameter Avg. (mm):,Cyl. Corr. Factor:,Height (mm):,Age (days):,Weight (kN):,Break Type:,Ramp Rate (MPa/s):,Load at Break (kN):,Stress at Break (MPa):
12,7/3/2021,07:41,Cylinder,100,1,200,0,3.6,3,0.24,602.53,76.72
Sample Time,Load (kN),Stress (MPa),Long. Strain,Trans. Strain,Chan1 Deflection (mm),Chan2 Deflection (mm)
0:0:5.123,5.21776,0.661897,0,0.000885,0,0
0:0:6.421,7.27284,0.923897,0,0.000885,0,0
0:0:7.727,10.0307,1.27553,0,0.000885,0,0
0:0:9.038,12.0814,1.53753,0,0.000885,0,0
0:0:10.341,15.0127,1.90985,0,0.000885,0,0
0:0:11.649,17.2413,2.19253,0,0.000885,0,0
0:0:12.949,20.1771,2.57174,0,0.000885,0,0
0:0:14.247,22.7571,2.8958,0,0.000885,0,0
0:0:15.547,25.9821,3.30948,0,0.000885,0,0
0:0:16.862,29.2648,3.72317,0,0.000885,0,0
0:0:18.153,31.3199,3.98517,0,0.000885,0,0
0:0:19.448,33.4907,4.26096,0,0.000885,0,0
0:0:20.750,35.8927,4.57122,0,0.000885,0,0
0:0:22.059,37.8277,4.81944,0,0.000885,0,0
0:0:23.356,40.3498,5.13659,0,0.000885,0,0
0:0:24.647,43.3435,5.51581,0,0.000885,0,0
0:0:25.953,46.4528,5.9157,0,0.000885,0,0
0:0:27.259,48.8548,6.21907,0,0.000885,0,0
0:0:28.556,51.1412,6.50865,0,0.000885,0,0
0:0:29.845,53.432,6.80513,0,0.000885,0,0
0:0:31.153,55.8341,7.10849,0,0.000885,0,0
0:0:32.457,59.4149,7.56355,0,0.000885,0,0
0:0:33.752,61.5234,7.83244,0,0.000885,0,0
0:0:35.043,63.6363,8.10134,0,0.000885,0,0
0:0:36.350,66.5098,8.46676,0,0.000885,0,0
0:0:37.653,69.6191,8.86666,0,0.000885,0,0
0:0:38.946,71.9633,9.16313,0,0.000885,0,0
0:0:40.238,74.1341,9.43892,0,0.000885,0,0
0:0:41.553,76.892,9.79056,0,0.000885,0,0
0:0:42.850,79.2362,10.087,0,0.000885,0,0
0:0:44.143,81.8161,10.418,0,0.000885,0,0
0:0:45.437,84.574,10.7696,0,0.000885,0,0
0:0:46.751,87.2118,11.1075,0,0.000885,0,0
0:0:48.047,89.3247,11.3763,0,0.000885,0,0
0:0:49.338,92.1983,11.7418,0,0.000885,0,0
0:0:50.643,94.8361,12.0727,0,0.000885,0,0
0:0:51.958,96.4819,12.2865,0,0.000885,0,0
0:0:53.256,99.2932,12.645,0,0.000885,0,0
0:0:54.545,101.993,12.9828,0,0.000885,0,0
0:0:55.853,105.276,13.4034,0,0.000885,0,0
0:0:57.156,107.447,13.6792,0,0.000885,0,0
0:0:58.450,109.444,13.9343,0,0.000885,0,0
0:0:59.742,112.14,14.279,0,0.000885,0,0
0:1:1.050,115.249,14.672,0,0.000885,0,0
0:1:2.355,117.42,14.9478,0,0.000885,0,0
0:1:3.649,120.293,15.3133,0,0.000885,0,0
0:1:4.940,122.286,15.5684,0,0.000885,0,0
0:1:6.250,125.217,15.9407,0,0.000885,0,0
0:1:7.552,127.86,16.2785,0,0.000885,0,0
0:1:8.842,129.91,16.5405,0,0.000885,0,0
0:1:10.136,132.668,16.8922,0,0.000885,0,0
0:1:11.456,135.133,17.2024,0,0.000885,0,0
0:1:12.760,138.531,17.6368,0,0.000885,0,0
0:1:14.051,141.173,17.9746,0,0.000885,0,0
0:1:15.349,142.872,18.1884,0,0.000885,0,0
0:1:16.665,145.804,18.5676,0,0.000885,0,0
0:1:17.959,147.975,18.8434,0,0.000885,0,0
0:1:19.252,150.732,19.195,0,0.000885,0,0
0:1:20.551,152.903,19.4708,0,0.000885,0,0
0:1:21.865,155.777,19.8362,0,0.000885,0,0
0:1:23.157,158.824,20.2223,0,0.000885,0,0
0:1:24.455,160.879,20.4843,0,0.000885,0,0
0:1:25.755,163.695,20.8429,0,0.000885,0,0
0:1:27.068,166.332,21.1807,0,0.000885,0,0
0:1:28.360,168.681,21.4772,0,0.000885,0,0
0:1:29.656,171.319,21.815,0,0.000885,0,0
0:1:30.958,174.135,22.1735,0,0.000885,0,0
0:1:32.267,176.127,22.4286,0,0.000885,0,0
0:1:33.562,178.827,22.7665,0,0.000885,0,0
0:1:34.853,181.701,23.1319,0,0.000885,0,0
0:1:36.157,183.578,23.3732,0,0.000885,0,0
0:1:37.463,186.745,23.78,0,0.000885,0,0
0:1:38.760,189.147,24.0834,0,0.000885,0,0
0:1:40.049,191.554,24.3868,0,0.000885,0,0
0:1:41.357,194.307,24.7384,0,0.000885,0,0
0:1:42.645,196.892,25.0693,0,0.000885,0,0
0:1:43.940,199.12,25.352,0,0.000885,0,0
0:1:45.243,202.109,25.7312,0,0.000885,0,0
0:1:46.548,204.689,26.0622,0,0.000885,0,0
0:1:47.833,207.332,26.4,0,0.000885,0,0
0:1:49.129,209.912,26.7241,0,0.000885,0,0
0:1:50.409,211.904,26.9792,0,0.000885,0,0
0:1:51.712,214.662,27.3308,0,0.000885,0,0
0:1:52.999,217.006,27.6273,0,0.000885,0,0
0:1:54.287,219.764,27.9789,0,0.000885,0,0
0:1:55.576,222.46,28.3237,0,0.000885,0,0
0:1:56.878,224.809,28.6201,0,0.000885,0,0
0:1:58.160,227.389,28.9511,0,0.000885,0,0
0:1:59.445,229.266,29.1924,0,0.000885,0,0
0:2:0.734,232.784,29.6406,0,0.000885,0,0
0:2:2.034,234.777,29.8957,0,0.000885,0,0
0:2:3.315,236.832,30.1508,0,0.000885,0,0
0:2:4.600,239.706,30.5231,0,0.000885,0,0
0:2:5.893,242.637,30.8954,0,0.000885,0,0
0:2:7.193,245.101,31.2057,0,0.000885,0,0
0:2:8.475,246.743,31.4194,0,0.000885,0,0
0:2:9.759,249.265,31.7366,0,0.000885,0,0
0:2:11.062,252.961,32.2054,0,0.000885,0,0
0:2:12.351,254.309,32.3778,0,0.000885,0,0
0:2:13.654,257.65,32.8053,0,0.000885,0,0
0:2:14.947,260.114,33.1155,0,0.000885,0,0
0:2:16.248,262.107,33.3706,0,0.000885,0,0
0:2:17.548,265.158,33.7636,0,0.000885,0,0
0:2:18.840,267.796,34.0946,0,0.000885,0,0
0:2:20.131,270.145,34.3979,0,0.000885,0,0
0:2:21.434,272.609,34.7082,0,0.000885,0,0
0:2:22.742,275.363,35.0598,0,0.000885,0,0
0:2:24.050,278.121,35.4115,0,0.000885,0,0
0:2:25.349,279.82,35.6252,0,0.000885,0,0
0:2:26.650,283.223,36.0596,0,0.000885,0,0
0:2:27.949,286.038,36.4181,0,0.000885,0,0
0:2:29.244,288.503,36.7353,0,0.000885,0,0
0:2:30.553,290.789,37.0248,0,0.000885,0,0
0:2:31.856,293.196,37.3282,0,0.000885,0,0
0:2:33.135,295.891,37.673,0,0.000885,0,0
0:2:34.429,298.12,37.9556,0,0.000885,0,0
0:2:35.720,300.468,38.259,0,0.000885,0,0
0:2:37.017,303.106,38.59,0,0.000885,0,0
0:2:38.304,306.158,38.983,0,0.000885,0,0
0:2:39.583,308.738,39.307,0,0.000885,0,0
0:2:40.881,310.788,39.569,0,0.000885,0,0
0:2:42.178,313.546,39.9206,0,0.000885,0,0
0:2:43.465,316.478,40.293,0,0.000885,0,0
0:2:44.755,319,40.617,0,0.000885,0,0
0:2:46.055,320.641,40.8239,0,0.000885,0,0
0:2:47.350,322.87,41.1065,0,0.000885,0,0
0:2:48.642,325.979,41.5064,0,0.000885,0,0
0:2:49.936,328.91,41.8788,0,0.000885,0,0
0:2:51.240,331.201,42.1683,0,0.000885,0,0
0:2:52.530,333.955,42.52,0,0.000885,0,0
0:2:53.813,336.948,42.8992,0,0.000885,0,0
0:2:55.099,338.999,43.1612,0,0.000885,0,0
0:2:56.403,340.992,43.4163,0,0.000885,0,0
0:2:57.691,343.87,43.7817,0,0.000885,0,0
0:2:58.973,346.098,44.0644,0,0.000885,0,0
0:3:0.262,348.852,44.416,0,0.000885,0,0
0:3:1.567,351.903,44.809,0,0.000885,0,0
0:3:2.849,353.723,45.0366,0,0.000885,0,0
0:3:4.142,356.538,45.3951,0,0.000885,0,0
0:3:5.431,359.118,45.726,0,0.000885,0,0
0:3:6.738,362.05,46.0983,0,0.000885,0,0
0:3:8.021,364.572,46.4155,0,0.000885,0,0
0:3:9.305,366.449,46.6568,0,0.000885,0,0
0:3:10.605,369.38,47.0291,0,0.000885,0,0
0:3:11.899,371.845,47.3463,0,0.000885,0,0
0:3:13.183,374.425,47.6704,0,0.000885,0,0
0:3:14.467,376.48,47.9324,0,0.000885,0,0
0:3:15.764,378.997,48.2564,0,0.000885,0,0
0:3:17.060,382.342,48.6839,0,0.000885,0,0
0:3:18.349,384.455,48.9528,0,0.000885,0,0
0:3:19.646,386.626,49.2286,0,0.000885,0,0
0:3:20.963,389.38,49.5802,0,0.000885,0,0
0:3:22.257,393.018,50.0421,0,0.000885,0,0
0:3:23.537,395.54,50.3593,0,0.000885,0,0
0:3:24.844,397.355,50.5937,0,0.000885,0,0
0:3:26.148,399.82,50.904,0,0.000885,0,0
0:3:27.435,402.813,51.2901,0,0.000885,0,0
0:3:28.745,404.334,51.4832,0,0.000885,0,0
0:3:30.056,407.386,51.8693,0,0.000885,0,0
0:3:31.361,410.144,52.2209,0,0.000885,0,0
0:3:32.644,412.488,52.5174,0,0.000885,0,0
0:3:33.925,415.54,52.9104,0,0.000885,0,0
0:3:35.212,417.71,53.1862,0,0.000885,0,0
0:3:36.518,420.464,53.5378,0,0.000885,0,0
0:3:37.804,422.812,53.8343,0,0.000885,0,0
0:3:39.091,425.277,54.1445,0,0.000885,0,0
0:3:40.380,427.799,54.4686,0,0.000885,0,0
0:3:41.686,430.259,54.7857,0,0.000885,0,0
0:3:42.967,432.723,55.096,0,0.000885,0,0
0:3:44.264,434.836,55.3649,0,0.000885,0,0
0:3:45.565,437.474,55.7027,0,0.000885,0,0
0:3:46.858,440.819,56.1233,0,0.000885,0,0
0:3:48.162,442.927,56.3922,0,0.000885,0,0
0:3:49.462,445.685,56.7439,0,0.000885,0,0
0:3:50.765,447.678,56.999,0,0.000885,0,0
0:3:52.064,450.903,57.4126,0,0.000885,0,0
0:3:53.360,452.842,57.6609,0,0.000885,0,0
0:3:54.650,456.125,58.0745,0,0.000885,0,0
0:3:55.952,457.766,58.2814,0,0.000885,0,0
0:3:57.242,461.227,58.7226,0,0.000885,0,0
0:3:58.546,462.753,58.9226,0,0.000885,0,0
0:3:59.838,465.511,59.2673,0,0.000885,0,0
0:4:1.142,468.558,59.6603,0,0.000885,0,0
0:4:2.463,471.138,59.9844,0,0.000885,0,0
0:4:3.763,473.66,60.3084,0,0.000885,0,0
0:4:5.059,476.182,60.6325,0,0.000885,0,0
0:4:6.364,479.118,61.0048,0,0.000885,0,0
0:4:7.659,481.636,61.322,0,0.000885,0,0
0:4:8.959,483.633,61.5771,0,0.000885,0,0
0:4:10.265,486.213,61.908,0,0.000885,0,0
0:4:11.571,489.264,62.2941,0,0.000885,0,0
0:4:12.865,491.96,62.6389,0,0.000885,0,0
0:4:14.156,493.895,62.8871,0,0.000885,0,0
0:4:15.454,496.653,63.2387,0,0.000885,0,0
0:4:16.767,499.055,63.5421,0,0.000885,0,0
0:4:18.060,501.346,63.8317,0,0.000885,0,0
0:4:19.363,504.686,64.2591,0,0.000885,0,0
0:4:20.670,506.684,64.5142,0,0.000885,0,0
0:4:21.965,509.909,64.921,0,0.000885,0,0
0:4:23.265,512.373,65.2382,0,0.000885,0,0
0:4:24.562,514.308,65.4864,0,0.000885,0,0
0:4:25.870,517.003,65.8242,0,0.000885,0,0
0:4:27.165,519.583,66.1552,0,0.000885,0,0
0:4:28.465,521.754,66.431,0,0.000885,0,0
0:4:29.763,524.806,66.8171,0,0.000885,0,0
0:4:31.069,527.092,67.1136,0,0.000885,0,0
0:4:32.366,529.556,67.4238,0,0.000885,0,0
0:4:33.666,531.901,67.7272,0,0.000885,0,0
0:4:34.961,534.774,68.0926,0,0.000885,0,0
0:4:36.267,537.06,68.3822,0,0.000885,0,0
0:4:37.563,539.645,68.7063,0,0.000885,0,0
0:4:38.865,542.692,69.0993,0,0.000885,0,0
0:4:40.171,544.747,69.3613,0,0.000885,0,0
0:4:41.476,547.269,69.6784,0,0.000885,0,0
0:4:42.768,550.73,70.1197,0,0.000885,0,0
0:4:44.064,552.487,70.3472,0,0.000885,0,0
0:4:45.372,555.538,70.7333,0,0.000885,0,0
0:4:46.679,557.358,70.9677,0,0.000885,0,0
0:4:47.970,560.169,71.3263,0,0.000885,0,0
0:4:49.266,563.336,71.7262,0,0.000885,0,0
0:4:50.578,565.391,71.9882,0,0.000885,0,0
0:4:51.870,567.793,72.2915,0,0.000885,0,0
0:4:53.171,570.435,72.6294,0,0.000885,0,0
0:4:54.469,572.664,72.9121,0,0.000885,0,0
0:4:55.775,575.186,73.2361,0,0.000885,0,0
0:4:57.070,577.944,73.5877,0,0.000885,0,0
0:4:58.371,580.346,73.8911,0,0.000885,0,0
0:4:59.669,582.984,74.229,0,0.000885,0,0
0:5:0.967,585.39,74.5323,0,0.000885,0,0
0:5:2.260,588.442,74.9253,0,0.000885,0,0
0:5:3.567,590.728,75.2149,0,0.000885,0,0
0:5:4.870,593.077,75.5114,0,0.000885,0,0
0:5:6.181,594.718,75.7251,0,0.000885,0,0
0:5:7.468,595.19,75.7803,0,0.000885,0,0
0:5:8.769,598.655,76.2215,0,0.000885,0,0
0:5:10.074,602.236,76.6766,0,0.000885,0,0
0:5:11.384,602.703,76.7386,0,0.000885,0,0
0:5:12.673,574.363,73.1327,0,0.000885,0,0
0:5:13.968,540.521,68.8235,0,0.000885,0,0
0:5:15.274,450.729,57.392,0,0.000885,0,0
0:5:15.887,440.054,56.0268,0,0.000885,0,0