File: DataFile2021-07-28_093134.csv
Test ID:,Date Tested:,Time:,Test Type:,Diameter Avg. (mm):,Cyl. Corr. Factor:,Height (mm):,Age (days):,Weight (kN):,Break Type:,Ramp Rate (MPa/s):,Load at Break (kN):,Stress at Break (MPa):
12,7/28/2021,09:31,Cylinder,150,1,300,0,13.69,3,0.33,1515.3,85.75
Sample Time,Load (kN),Stress (MPa),Long. Strain,Trans. Strain,Chan1 Deflection (mm),Chan2 Deflection (mm)
0:0:9.975,6.5122,0.365422,0,0.000885,0,0
0:0:11.089,11.1428,0.627423,0,0.000885,0,0
0:0:12.191,18.0064,1.02042,0,0.000885,0,0
0:0:13.286,24.5764,1.39274,0,0.000885,0,0
0:0:14.383,30.8484,1.74437,0,0.000885,0,0
0:0:15.489,37.3606,2.11669,0,0.000885,0,0
0:0:16.601,44.3977,2.50969,0,0.000885,0,0
0:0:17.700,52.1421,2.95096,0,0.000885,0,0
0:0:18.793,60.1177,3.39912,0,0.000885,0,0
0:0:19.887,67.742,3.83349,0,0.000885,0,0
0:0:20.992,73.9561,4.18512,0,0.000885,0,0
0:0:22.103,80.584,4.55743,0,0.000885,0,0
0:0:23.199,87.2118,4.93665,0,0.000885,0,0
0:0:24.292,94.0176,5.32275,0,0.000885,0,0
0:0:25.394,100.703,5.70196,0,0.000885,0,0
0:0:26.506,107.273,6.06739,0,0.000885,0,0
0:0:27.603,114.132,6.46039,0,0.000885,0,0
0:0:28.697,120.525,6.81891,0,0.000885,0,0
0:0:29.791,127.74,7.22571,0,0.000885,0,0
0:0:30.898,134.955,7.63939,0,0.000885,0,0
0:0:32.001,141.173,7.99102,0,0.000885,0,0
0:0:33.095,148.21,8.38402,0,0.000885,0,0
0:0:34.189,155.657,8.8115,0,0.000885,0,0
0:0:35.285,162.169,9.17692,0,0.000885,0,0
0:0:36.397,168.739,9.54924,0,0.000885,0,0
0:0:37.500,176.012,9.96292,0,0.000885,0,0
0:0:38.594,182.755,10.3421,0,0.000885,0,0
0:0:39.688,189.263,10.7076,0,0.000885,0,0
0:0:40.785,196.362,11.1143,0,0.000885,0,0
0:0:41.889,203.106,11.4936,0,0.000885,0,0
0:0:42.986,209.676,11.8659,0,0.000885,0,0
0:0:44.081,216.01,12.2244,0,0.000885,0,0
0:0:45.190,222.874,12.6105,0,0.000885,0,0
0:0:46.295,229.733,13.0035,0,0.000885,0,0
0:0:47.387,236.89,13.4034,0,0.000885,0,0
0:0:48.490,244.043,13.8102,0,0.000885,0,0
0:0:49.575,250.319,14.1618,0,0.000885,0,0
0:0:50.679,256.653,14.5204,0,0.000885,0,0
0:0:51.786,264.046,14.9409,0,0.000885,0,0
0:0:52.881,270.496,15.3064,0,0.000885,0,0
0:0:53.990,277.591,15.7063,0,0.000885,0,0
0:0:55.095,284.219,16.0855,0,0.000885,0,0
0:0:56.196,291.141,16.4785,0,0.000885,0,0
0:0:57.290,297.711,16.8439,0,0.000885,0,0
0:0:58.387,304.748,17.2438,0,0.000885,0,0
0:0:59.486,311.26,17.6161,0,0.000885,0,0
0:1:0.592,318.706,18.0367,0,0.000885,0,0
0:1:1.693,325.04,18.3952,0,0.000885,0,0
0:1:2.790,331.668,18.7675,0,0.000885,0,0
0:1:3.884,338.825,19.1743,0,0.000885,0,0
0:1:4.990,345.978,19.5811,0,0.000885,0,0
0:1:6.095,352.139,19.9258,0,0.000885,0,0
0:1:7.190,359.47,20.3395,0,0.000885,0,0
0:1:8.287,365.977,20.7119,0,0.000885,0,0
0:1:9.395,372.663,21.0911,0,0.000885,0,0
0:1:10.481,379.233,21.4634,0,0.000885,0,0
0:1:11.589,385.861,21.8357,0,0.000885,0,0
0:1:12.688,393.249,22.2563,0,0.000885,0,0
0:1:13.783,399.646,22.6148,0,0.000885,0,0
0:1:14.880,406.683,23.0147,0,0.000885,0,0
0:1:15.988,413.484,23.4008,0,0.000885,0,0
0:1:17.091,420.526,23.7938,0,0.000885,0,0
0:1:18.189,427.737,24.2075,0,0.000885,0,0
0:1:19.282,433.777,24.5453,0,0.000885,0,0
0:1:20.382,440.054,24.9039,0,0.000885,0,0
0:1:21.490,447.384,25.3175,0,0.000885,0,0
0:1:22.589,454.364,25.7105,0,0.000885,0,0
0:1:23.684,461.169,26.0967,0,0.000885,0,0
0:1:24.793,467.913,26.4759,0,0.000885,0,0
0:1:25.900,474.776,26.8689,0,0.000885,0,0
0:1:26.999,481.462,27.2481,0,0.000885,0,0
0:1:28.094,487.854,27.6066,0,0.000885,0,0
0:1:29.191,495.185,28.0203,0,0.000885,0,0
0:1:30.277,502.284,28.4202,0,0.000885,0,0
0:1:31.383,509.321,28.8201,0,0.000885,0,0
0:1:32.498,515.246,29.1579,0,0.000885,0,0
0:1:33.582,521.99,29.5371,0,0.000885,0,0
0:1:34.678,528.56,29.9095,0,0.000885,0,0
0:1:35.779,535.539,30.3025,0,0.000885,0,0
0:1:36.883,542.576,30.7024,0,0.000885,0,0
0:1:37.991,549.907,31.116,0,0.000885,0,0
0:1:39.086,557.002,31.5228,0,0.000885,0,0
0:1:40.195,563.163,31.8676,0,0.000885,0,0
0:1:41.302,569.79,32.2468,0,0.000885,0,0
0:1:42.395,576.183,32.6053,0,0.000885,0,0
0:1:43.491,583.104,32.9983,0,0.000885,0,0
0:1:44.586,589.79,33.3775,0,0.000885,0,0
0:1:45.686,596.484,33.7567,0,0.000885,0,0
0:1:46.797,604.291,34.198,0,0.000885,0,0
0:1:47.888,611.159,34.5841,0,0.000885,0,0
0:1:48.982,617.204,34.9288,0,0.000885,0,0
0:1:50.075,624.072,35.3149,0,0.000885,0,0
0:1:51.200,631.114,35.7148,0,0.000885,0,0
0:1:52.301,637.452,36.0734,0,0.000885,0,0
0:1:53.392,644.383,36.4664,0,0.000885,0,0
0:1:54.496,651.482,36.8663,0,0.000885,0,0
0:1:55.598,658.47,37.2593,0,0.000885,0,0
0:1:56.706,665.338,37.6523,0,0.000885,0,0
0:1:57.799,672.673,38.066,0,0.000885,0,0
0:1:58.899,678.367,38.39,0,0.000885,0,0
0:1:59.988,685.177,38.7761,0,0.000885,0,0
0:2:1.099,691.925,39.1553,0,0.000885,0,0
0:2:2.201,699.616,39.5897,0,0.000885,0,0
0:2:3.295,706.191,39.962,0,0.000885,0,0
0:2:4.386,712.881,40.3412,0,0.000885,0,0
0:2:5.478,719.398,40.7066,0,0.000885,0,0
0:2:6.589,726.444,41.1065,0,0.000885,0,0
0:2:7.695,733.191,41.4926,0,0.000885,0,0
0:2:8.786,739.592,41.8512,0,0.000885,0,0
0:2:9.889,746.34,42.2373,0,0.000885,0,0
0:2:11.004,754.031,42.6717,0,0.000885,0,0
0:2:12.109,760.254,43.0233,0,0.000885,0,0
0:2:13.200,766.887,43.3956,0,0.000885,0,0
0:2:14.289,773.813,43.7886,0,0.000885,0,0
0:2:15.394,780.209,44.154,0,0.000885,0,0
0:2:16.505,786.259,44.4919,0,0.000885,0,0
0:2:17.605,792.949,44.8711,0,0.000885,0,0
0:2:18.697,800.226,45.2848,0,0.000885,0,0
0:2:19.797,806.271,45.6226,0,0.000885,0,0
0:2:20.896,812.966,46.0018,0,0.000885,0,0
0:2:22.004,820.595,46.4362,0,0.000885,0,0
0:2:23.099,827.992,46.8568,0,0.000885,0,0
0:2:24.189,834.451,47.2222,0,0.000885,0,0
0:2:25.292,842.257,47.6635,0,0.000885,0,0
0:2:26.405,849.77,48.084,0,0.000885,0,0
0:2:27.499,856.639,48.477,0,0.000885,0,0
0:2:28.590,863.738,48.8769,0,0.000885,0,0
0:2:29.684,869.903,49.2286,0,0.000885,0,0
0:2:30.789,876.887,49.6216,0,0.000885,0,0
0:2:31.892,883.288,49.987,0,0.000885,0,0
0:2:32.996,889.627,50.3455,0,0.000885,0,0
0:2:34.086,896.317,50.7178,0,0.000885,0,0
0:2:35.189,902.775,51.0833,0,0.000885,0,0
0:2:36.303,910.582,51.5314,0,0.000885,0,0
0:2:37.402,917.45,51.9175,0,0.000885,0,0
0:2:38.491,924.376,52.3105,0,0.000885,0,0
0:2:39.583,930.893,52.6759,0,0.000885,0,0
0:2:40.691,937.583,53.0552,0,0.000885,0,0
0:2:41.802,943.979,53.4206,0,0.000885,0,0
0:2:42.893,950.087,53.7653,0,0.000885,0,0
0:2:43.998,957.6,54.1859,0,0.000885,0,0
0:2:45.100,965.171,54.6203,0,0.000885,0,0
0:2:46.208,972.039,55.0064,0,0.000885,0,0
0:2:47.309,978.377,55.3649,0,0.000885,0,0
0:2:48.403,984.543,55.7165,0,0.000885,0,0
0:2:49.494,991.469,56.1026,0,0.000885,0,0
0:2:50.599,998.394,56.4956,0,0.000885,0,0
0:2:51.711,1004.97,56.868,0,0.000885,0,0
0:2:52.805,1012.66,57.3023,0,0.000885,0,0
0:2:53.894,1019.35,57.6815,0,0.000885,0,0
0:2:54.990,1026.34,58.0814,0,0.000885,0,0
0:2:56.104,1032.56,58.4331,0,0.000885,0,0
0:2:57.211,1039.31,58.8123,0,0.000885,0,0
0:2:58.302,1045.88,59.1846,0,0.000885,0,0
0:2:59.391,1052.93,59.5845,0,0.000885,0,0
0:3:0.493,1059.03,59.9292,0,0.000885,0,0
0:3:1.602,1066.66,60.3636,0,0.000885,0,0
0:3:2.693,1073.77,60.7635,0,0.000885,0,0
0:3:3.787,1080.34,61.1358,0,0.000885,0,0
0:3:4.889,1086.68,61.4943,0,0.000885,0,0
0:3:5.994,1093.31,61.8667,0,0.000885,0,0
0:3:7.096,1100.53,62.2803,0,0.000885,0,0
0:3:8.195,1107.28,62.6596,0,0.000885,0,0
0:3:9.300,1115.03,63.1008,0,0.000885,0,0
0:3:10.403,1121.66,63.4731,0,0.000885,0,0
0:3:11.512,1128.12,63.8386,0,0.000885,0,0
0:3:12.612,1134.52,64.204,0,0.000885,0,0
0:3:13.705,1141.33,64.5832,0,0.000885,0,0
0:3:14.794,1147.9,64.9555,0,0.000885,0,0
0:3:15.901,1154.59,65.3347,0,0.000885,0,0
0:3:17.001,1160.87,65.6932,0,0.000885,0,0
0:3:18.093,1168.97,66.1483,0,0.000885,0,0
0:3:19.195,1175.55,66.5206,0,0.000885,0,0
0:3:20.288,1182.3,66.9067,0,0.000885,0,0
0:3:21.402,1189.11,67.2928,0,0.000885,0,0
0:3:22.497,1195.92,67.672,0,0.000885,0,0
0:3:23.597,1202.55,68.0513,0,0.000885,0,0
0:3:24.687,1209.01,68.4167,0,0.000885,0,0
0:3:25.788,1216.05,68.8166,0,0.000885,0,0
0:3:26.898,1222.92,69.2027,0,0.000885,0,0
0:3:28.004,1228.97,69.5474,0,0.000885,0,0
0:3:29.094,1235.66,69.9266,0,0.000885,0,0
0:3:30.186,1243.11,70.3472,0,0.000885,0,0
0:3:31.291,1250.27,70.754,0,0.000885,0,0
0:3:32.399,1257.67,71.1677,0,0.000885,0,0
0:3:33.503,1264.54,71.5607,0,0.000885,0,0
0:3:34.596,1270.99,71.9261,0,0.000885,0,0
0:3:35.698,1278.04,72.3191,0,0.000885,0,0
0:3:36.806,1284.61,72.6914,0,0.000885,0,0
0:3:37.896,1291.07,73.0568,0,0.000885,0,0
0:3:38.996,1298.05,73.4567,0,0.000885,0,0
0:3:40.106,1304.63,73.8291,0,0.000885,0,0
0:3:41.215,1311.03,74.1876,0,0.000885,0,0
0:3:42.314,1318.31,74.6013,0,0.000885,0,0
0:3:43.408,1325.65,75.015,0,0.000885,0,0
0:3:44.498,1331.86,75.3666,0,0.000885,0,0
0:3:45.592,1339.15,75.7803,0,0.000885,0,0
0:3:46.700,1345.72,76.1526,0,0.000885,0,0
0:3:47.806,1352.59,76.5387,0,0.000885,0,0
0:3:48.898,1359.04,76.9041,0,0.000885,0,0
0:3:49.989,1365.91,77.2971,0,0.000885,0,0
0:3:51.100,1372.31,77.6557,0,0.000885,0,0
0:3:52.198,1379.88,78.0831,0,0.000885,0,0
0:3:53.291,1386.81,78.4761,0,0.000885,0,0
0:3:54.381,1393.15,78.8347,0,0.000885,0,0
0:3:55.477,1399.84,79.2139,0,0.000885,0,0
0:3:56.587,1406.24,79.5793,0,0.000885,0,0
0:3:57.691,1413.34,79.9792,0,0.000885,0,0
0:3:58.784,1419.62,80.3308,0,0.000885,0,0
0:3:59.880,1426.31,80.71,0,0.000885,0,0
0:4:0.981,1433.77,81.1375,0,0.000885,0,0
0:4:2.089,1440.81,81.5305,0,0.000885,0,0
0:4:3.198,1447.68,81.9235,0,0.000885,0,0
0:4:4.300,1453.43,82.2476,0,0.000885,0,0
0:4:5.402,1460.88,82.6681,0,0.000885,0,0
0:4:6.513,1465.7,82.9439,0,0.000885,0,0
0:4:7.613,1473.22,83.3645,0,0.000885,0,0
0:4:8.707,1480.8,83.7989,0,0.000885,0,0
0:4:9.796,1486.04,84.0954,0,0.000885,0,0
0:4:10.906,1493.51,84.5159,0,0.000885,0,0
0:4:12.006,1501.17,84.9503,0,0.000885,0,0
0:4:13.109,1507.94,85.3295,0,0.000885,0,0
0:4:14.199,1507.17,85.2881,0,0.000885,0,0
0:4:15.300,1503.64,85.0882,0,0.000885,0,0
0:4:16.409,1502.7,85.033,0,0.000885,0,0
0:4:17.502,1506.41,85.2468,0,0.000885,0,0
0:4:18.599,1510.95,85.5019,0,0.000885,0,0
0:4:19.699,1513.42,85.6398,0,0.000885,0,0
0:4:20.810,1512.12,85.5708,0,0.000885,0,0
0:4:21.915,1503.53,85.0813,0,0.000885,0,0
0:4:23.003,1497.93,84.7641,0,0.000885,0,0
0:4:24.102,1296.88,73.3878,0,0.000885,0,0
0:4:24.249,1078.17,61.0117,0,0.000885,0,0