File: DataFile2021-06-24_050039.csv
Test ID:,Date Tested:,Time:,Test Type:,Diameter Avg. (mm):,Cyl. Corr. Factor:,Height (mm):,Age (days):,Weight (kN):,Break Type:,Ramp Rate (MPa/s):,Load at Break (kN):,Stress at Break (MPa):
12,6/24/2021,05:00,Cylinder,150,1,300,0,3.6,3,0.25,1493.87,84.54
Sample Time,Load (kN),Stress (MPa),Long. Strain,Trans. Strain,Chan1 Deflection (mm),Chan2 Deflection (mm)
0:0:15.344,6.44992,0.365422,0,0.000885,0,0
0:0:16.833,13.3714,0.758423,0,0.000885,0,0
0:0:18.320,16.5385,0.937687,0,0.000885,0,0
0:0:19.815,24.5141,1.38585,0,0.000885,0,0
0:0:21.321,32.6677,1.84779,0,0.000885,0,0
0:0:22.829,38.0056,2.15116,0,0.000885,0,0
0:0:24.324,44.8069,2.53727,0,0.000885,0,0
0:0:25.816,51.377,2.90959,0,0.000885,0,0
0:0:27.333,59.5884,3.37154,0,0.000885,0,0
0:0:28.826,64.6327,3.65422,0,0.000885,0,0
0:0:30.321,71.9055,4.06791,0,0.000885,0,0
0:0:31.839,77.8884,4.40575,0,0.000885,0,0
0:0:33.334,85.1034,4.81254,0,0.000885,0,0
0:0:34.827,90.9661,5.15038,0,0.000885,0,0
0:0:36.337,97.7096,5.5296,0,0.000885,0,0
0:0:37.841,104.751,5.92949,0,0.000885,0,0
0:0:39.335,110.908,6.27423,0,0.000885,0,0
0:0:40.830,117.945,6.67413,0,0.000885,0,0
0:0:42.347,124.572,7.04644,0,0.000885,0,0
0:0:43.842,131.436,7.43944,0,0.000885,0,0
0:0:45.335,137.361,7.77039,0,0.000885,0,0
0:0:46.844,144.865,8.19787,0,0.000885,0,0
0:0:48.343,150.79,8.53571,0,0.000885,0,0
0:0:49.838,157.36,8.90803,0,0.000885,0,0
0:0:51.348,164.397,9.30103,0,0.000885,0,0
0:0:52.851,170.732,9.65955,0,0.000885,0,0
0:0:54.345,177.244,10.0319,0,0.000885,0,0
0:0:55.846,184.69,10.4525,0,0.000885,0,0
0:0:57.358,190.909,10.8041,0,0.000885,0,0
0:0:58.845,197.71,11.1902,0,0.000885,0,0
0:1:0.330,204.867,11.5901,0,0.000885,0,0
0:1:1.831,210.321,11.9004,0,0.000885,0,0
0:1:3.322,217.594,12.314,0,0.000885,0,0
0:1:4.803,223.928,12.6726,0,0.000885,0,0
0:1:6.307,230.729,13.0587,0,0.000885,0,0
0:1:7.805,237.299,13.431,0,0.000885,0,0
0:1:9.306,243.166,13.7619,0,0.000885,0,0
0:1:10.809,250.319,14.1618,0,0.000885,0,0
0:1:12.321,256.48,14.5135,0,0.000885,0,0
0:1:13.810,263.691,14.9203,0,0.000885,0,0
0:1:15.292,269.264,15.2374,0,0.000885,0,0
0:1:16.802,276.301,15.6373,0,0.000885,0,0
0:1:18.316,284.103,16.0786,0,0.000885,0,0
0:1:19.818,290.438,16.4371,0,0.000885,0,0
0:1:21.319,296.594,16.7818,0,0.000885,0,0
0:1:22.819,303.573,17.1817,0,0.000885,0,0
0:1:24.310,309.97,17.5403,0,0.000885,0,0
0:1:25.813,316.593,17.9126,0,0.000885,0,0
0:1:27.323,322.812,18.2642,0,0.000885,0,0
0:1:28.813,329.555,18.6503,0,0.000885,0,0
0:1:30.296,336.361,19.0364,0,0.000885,0,0
0:1:31.796,343.163,19.4225,0,0.000885,0,0
0:1:33.285,349.617,19.7811,0,0.000885,0,0
0:1:34.765,355.831,20.1327,0,0.000885,0,0
0:1:36.269,363.104,20.5464,0,0.000885,0,0
0:1:37.759,369.438,20.9049,0,0.000885,0,0
0:1:39.241,375.479,21.2496,0,0.000885,0,0
0:1:40.731,382.227,21.6289,0,0.000885,0,0
0:1:42.234,388.912,22.0081,0,0.000885,0,0
0:1:43.719,395.362,22.3735,0,0.000885,0,0
0:1:45.209,401.875,22.7389,0,0.000885,0,0
0:1:46.731,409.147,23.1526,0,0.000885,0,0
0:1:48.222,415.775,23.5249,0,0.000885,0,0
0:1:49.723,422.167,23.8903,0,0.000885,0,0
0:1:51.226,429.382,24.2971,0,0.000885,0,0
0:1:52.710,435.187,24.6281,0,0.000885,0,0
0:1:54.212,442.167,25.0211,0,0.000885,0,0
0:1:55.701,448.265,25.3658,0,0.000885,0,0
0:1:57.203,455.244,25.7588,0,0.000885,0,0
0:1:58.689,461.579,26.1173,0,0.000885,0,0
0:2:0.173,468.322,26.5034,0,0.000885,0,0
0:2:1.675,474.776,26.8689,0,0.000885,0,0
0:2:3.164,481.991,27.2757,0,0.000885,0,0
0:2:4.645,487.97,27.6135,0,0.000885,0,0
0:2:6.146,494.66,27.9927,0,0.000885,0,0
0:2:7.634,501.11,28.3581,0,0.000885,0,0
0:2:9.126,507.502,28.7167,0,0.000885,0,0
0:2:10.624,513.956,29.0821,0,0.000885,0,0
0:2:12.128,521.461,29.5096,0,0.000885,0,0
0:2:13.622,528.44,29.9026,0,0.000885,0,0
0:2:15.126,534.601,30.2542,0,0.000885,0,0
0:2:16.634,541.108,30.6196,0,0.000885,0,0
0:2:18.124,547.794,30.9988,0,0.000885,0,0
0:2:19.624,554.422,31.3711,0,0.000885,0,0
0:2:21.113,560.583,31.7228,0,0.000885,0,0
0:2:22.622,567.033,32.0882,0,0.000885,0,0
0:2:24.112,574.363,32.5019,0,0.000885,0,0
0:2:25.613,580.462,32.8466,0,0.000885,0,0
0:2:27.124,586.858,33.212,0,0.000885,0,0
0:2:28.612,593.664,33.5913,0,0.000885,0,0
0:2:30.101,600.359,33.9705,0,0.000885,0,0
0:2:31.611,607.578,34.3842,0,0.000885,0,0
0:2:33.116,613.681,34.7289,0,0.000885,0,0
0:2:34.615,620.727,35.1288,0,0.000885,0,0
0:2:36.113,627.239,35.4942,0,0.000885,0,0
0:2:37.628,633.347,35.8389,0,0.000885,0,0
0:2:39.117,640.273,36.2319,0,0.000885,0,0
0:2:40.629,646.963,36.6112,0,0.000885,0,0
0:2:42.132,653.422,36.9766,0,0.000885,0,0
0:2:43.621,660.054,37.3489,0,0.000885,0,0
0:2:45.125,666.806,37.735,0,0.000885,0,0
0:2:46.635,673.906,38.1349,0,0.000885,0,0
0:2:48.132,680.071,38.4865,0,0.000885,0,0
0:2:49.620,686.819,38.8657,0,0.000885,0,0
0:2:51.121,693.807,39.2587,0,0.000885,0,0
0:2:52.627,699.558,39.5897,0,0.000885,0,0
0:2:54.114,706.6,39.9827,0,0.000885,0,0
0:2:55.613,712.943,40.3412,0,0.000885,0,0
0:2:57.118,719.869,40.7342,0,0.000885,0,0
0:2:58.615,726.208,41.0928,0,0.000885,0,0
0:3:0.126,732.253,41.4375,0,0.000885,0,0
0:3:1.641,739.944,41.8719,0,0.000885,0,0
0:3:3.133,746.518,42.2442,0,0.000885,0,0
0:3:4.622,753.329,42.6303,0,0.000885,0,0
0:3:6.137,759.138,42.9612,0,0.000885,0,0
0:3:7.640,766.945,43.4025,0,0.000885,0,0
0:3:9.130,773.403,43.7679,0,0.000885,0,0
0:3:10.616,779.916,44.1333,0,0.000885,0,0
0:3:12.135,786.374,44.4988,0,0.000885,0,0
0:3:13.634,792.713,44.8573,0,0.000885,0,0
0:3:15.121,799.875,45.2641,0,0.000885,0,0
0:3:16.642,805.978,45.6088,0,0.000885,0,0
0:3:18.140,812.201,45.9605,0,0.000885,0,0
0:3:19.629,819.714,46.3879,0,0.000885,0,0
0:3:21.135,826.173,46.7533,0,0.000885,0,0
0:3:22.633,833.041,47.1395,0,0.000885,0,0
0:3:24.119,839.437,47.5049,0,0.000885,0,0
0:3:25.625,845.66,47.8565,0,0.000885,0,0
0:3:27.138,851.999,48.215,0,0.000885,0,0
0:3:28.636,859.103,48.6149,0,0.000885,0,0
0:3:30.130,865.442,48.9735,0,0.000885,0,0
0:3:31.636,872.132,49.3527,0,0.000885,0,0
0:3:33.131,878.768,49.725,0,0.000885,0,0
0:3:34.619,885.401,50.1042,0,0.000885,0,0
0:3:36.118,891.562,50.4489,0,0.000885,0,0
0:3:37.634,899.195,50.8833,0,0.000885,0,0
0:3:39.121,906.063,51.2694,0,0.000885,0,0
0:3:40.613,912.579,51.6417,0,0.000885,0,0
0:3:42.124,918.331,51.9658,0,0.000885,0,0
0:3:43.613,925.844,52.3933,0,0.000885,0,0
0:3:45.121,931.947,52.738,0,0.000885,0,0
0:3:46.637,938.286,53.0965,0,0.000885,0,0
0:3:48.126,944.802,53.4619,0,0.000885,0,0
0:3:49.624,951.964,53.8687,0,0.000885,0,0
0:3:51.134,958.596,54.248,0,0.000885,0,0
0:3:52.631,964.935,54.6065,0,0.000885,0,0
0:3:54.139,972.097,55.0064,0,0.000885,0,0
0:3:55.635,978.733,55.3856,0,0.000885,0,0
0:3:57.143,985.539,55.7717,0,0.000885,0,0
0:3:58.635,991.704,56.1164,0,0.000885,0,0
0:4:0.125,997.927,56.4681,0,0.000885,0,0
0:4:1.644,1004.38,56.8335,0,0.000885,0,0
0:4:3.141,1011.08,57.2127,0,0.000885,0,0
0:4:4.628,1018.18,57.6195,0,0.000885,0,0
0:4:6.137,1024.34,57.9642,0,0.000885,0,0
0:4:7.640,1031.27,58.3572,0,0.000885,0,0
0:4:9.137,1038.9,58.7916,0,0.000885,0,0
0:4:10.631,1045.3,59.1501,0,0.000885,0,0
0:4:12.138,1051.05,59.4742,0,0.000885,0,0
0:4:13.626,1057.86,59.8603,0,0.000885,0,0
0:4:15.135,1065.26,60.2809,0,0.000885,0,0
0:4:16.647,1070.71,60.5911,0,0.000885,0,0
0:4:18.139,1077.64,60.9841,0,0.000885,0,0
0:4:19.628,1084.51,61.3702,0,0.000885,0,0
0:4:21.140,1090.26,61.6943,0,0.000885,0,0
0:4:22.644,1097.48,62.108,0,0.000885,0,0
0:4:24.142,1103.64,62.4527,0,0.000885,0,0
0:4:25.627,1110.22,62.825,0,0.000885,0,0
0:4:27.144,1117.2,63.218,0,0.000885,0,0
0:4:28.631,1124.25,63.6179,0,0.000885,0,0
0:4:30.118,1130.82,63.9902,0,0.000885,0,0
0:4:31.632,1137.16,64.3488,0,0.000885,0,0
0:4:33.132,1144.14,64.7487,0,0.000885,0,0
0:4:34.633,1150.66,65.1141,0,0.000885,0,0
0:4:36.137,1156.88,65.4657,0,0.000885,0,0
0:4:37.641,1164.05,65.8725,0,0.000885,0,0
0:4:39.130,1170.91,66.2586,0,0.000885,0,0
0:4:40.618,1176.9,66.5965,0,0.000885,0,0
0:4:42.133,1183.89,66.9964,0,0.000885,0,0
0:4:43.622,1190.99,67.3963,0,0.000885,0,0
0:4:45.110,1197.15,67.7479,0,0.000885,0,0
0:4:46.624,1204.55,68.1616,0,0.000885,0,0
0:4:48.122,1210.24,68.4856,0,0.000885,0,0
0:4:49.633,1217.05,68.8717,0,0.000885,0,0
0:4:51.148,1224.27,69.2785,0,0.000885,0,0
0:4:52.647,1230.43,69.6302,0,0.000885,0,0
0:4:54.138,1236.3,69.9611,0,0.000885,0,0
0:4:55.627,1243.35,70.361,0,0.000885,0,0
0:4:57.142,1249.75,70.7195,0,0.000885,0,0
0:4:58.642,1257.2,71.1401,0,0.000885,0,0
0:5:0.129,1263.48,71.4986,0,0.000885,0,0
0:5:1.646,1269.76,71.8572,0,0.000885,0,0
0:5:3.143,1276.69,72.2433,0,0.000885,0,0
0:5:4.639,1283.26,72.6156,0,0.000885,0,0
0:5:6.154,1290.72,73.0431,0,0.000885,0,0
0:5:7.651,1297.11,73.4016,0,0.000885,0,0
0:5:9.141,1303.34,73.7532,0,0.000885,0,0
0:5:10.643,1309.44,74.098,0,0.000885,0,0
0:5:12.156,1316.19,74.4841,0,0.000885,0,0
0:5:13.646,1322.88,74.8633,0,0.000885,0,0
0:5:15.147,1329.93,75.2563,0,0.000885,0,0
0:5:16.653,1337.21,75.67,0,0.000885,0,0
0:5:18.149,1343.78,76.0423,0,0.000885,0,0
0:5:19.646,1350.06,76.4008,0,0.000885,0,0
0:5:21.153,1356.46,76.7593,0,0.000885,0,0
0:5:22.647,1362.8,77.1179,0,0.000885,0,0
0:5:24.147,1369.79,77.5109,0,0.000885,0,0
0:5:25.652,1375.19,77.8211,0,0.000885,0,0
0:5:27.158,1382.23,78.221,0,0.000885,0,0
0:5:28.648,1389.39,78.6209,0,0.000885,0,0
0:5:30.147,1395.67,78.9794,0,0.000885,0,0
0:5:31.656,1403.19,79.4069,0,0.000885,0,0
0:5:33.151,1408.94,79.731,0,0.000885,0,0
0:5:34.636,1416.57,80.1584,0,0.000885,0,0
0:5:36.133,1422.5,80.4963,0,0.000885,0,0
0:5:37.636,1429.19,80.8755,0,0.000885,0,0
0:5:39.124,1435.12,81.2133,0,0.000885,0,0
0:5:40.621,1442.4,81.6201,0,0.000885,0,0
0:5:42.125,1447.86,81.9304,0,0.000885,0,0
0:5:43.617,1454.67,82.3165,0,0.000885,0,0
0:5:45.109,1462.12,82.7371,0,0.000885,0,0
0:5:46.618,1468.75,83.1163,0,0.000885,0,0
0:5:48.114,1475.33,83.4886,0,0.000885,0,0
0:5:49.603,1481.62,83.8402,0,0.000885,0,0
0:5:51.102,1488.04,84.2057,0,0.000885,0,0
0:5:52.607,1493.87,84.5366,0,0.000885,0,0
0:5:54.092,1480.27,83.7644,0,0.000885,0,0
0:5:54.487,1474.74,83.4541,0,0.000885,0,0