File: DataFile2021-06-08_072016.csv
Test ID:,Date Tested:,Time:,Test Type:,Diameter Avg. (mm):,Cyl. Corr. Factor:,Height (mm):,Age (days):,Weight (kN):,Break Type:,Ramp Rate (MPa/s):,Load at Break (kN):,Stress at Break (MPa):
12,6/8/2021,07:20,Cylinder,100,1,200,0,3.6,3,0.23,273.55,34.83
Sample Time,Load (kN),Stress (MPa),Long. Strain,Trans. Strain,Chan1 Deflection (mm),Chan2 Deflection (mm)
0:0:20.641,5.10211,0.648107,0,0.000885,0,0
0:0:21.339,12.0235,1.53064,0,0.000885,0,0
0:0:22.032,11.1428,1.42032,0,0.000885,0,0
0:0:22.724,10.907,1.38585,0,0.000885,0,0
0:0:23.421,11.3786,1.4479,0,0.000885,0,0
0:0:24.114,10.7336,1.36516,0,0.000885,0,0
0:0:24.806,11.9079,1.51685,0,0.000885,0,0
0:0:25.506,13.785,1.75816,0,0.000885,0,0
0:0:26.205,15.8357,2.01327,0,0.000885,0,0
0:0:26.913,17.0678,2.17185,0,0.000885,0,0
0:0:27.618,18.945,2.41317,0,0.000885,0,0
0:0:28.312,20.9956,2.67517,0,0.000885,0,0
0:0:29.011,22.2278,2.82685,0,0.000885,0,0
0:0:29.708,22.8149,2.90269,0,0.000885,0,0
0:0:30.402,24.5764,3.13022,0,0.000885,0,0
0:0:31.100,25.9821,3.30948,0,0.000885,0,0
0:0:31.808,27.2142,3.46806,0,0.000885,0,0
0:0:32.514,28.6821,3.65422,0,0.000885,0,0
0:0:33.214,29.852,3.79901,0,0.000885,0,0
0:0:33.907,31.0263,3.9507,0,0.000885,0,0
0:0:34.605,32.6099,4.15064,0,0.000885,0,0
0:0:35.303,33.722,4.29543,0,0.000885,0,0
0:0:36.005,35.3055,4.49538,0,0.000885,0,0
0:0:36.713,36.8891,4.69533,0,0.000885,0,0
0:0:37.418,38.0634,4.84701,0,0.000885,0,0
0:0:38.112,39.7048,5.05386,0,0.000885,0,0
0:0:38.813,41.1149,5.23312,0,0.000885,0,0
0:0:39.508,42.1113,5.36412,0,0.000885,0,0
0:0:40.203,43.9306,5.59165,0,0.000885,0,0
0:0:40.901,45.0427,5.73644,0,0.000885,0,0
0:0:41.611,46.217,5.88123,0,0.000885,0,0
0:0:42.315,47.9162,6.10186,0,0.000885,0,0
0:0:43.013,48.5612,6.1846,0,0.000885,0,0
0:0:43.708,49.9713,6.36386,0,0.000885,0,0
0:0:44.406,52.0798,6.63276,0,0.000885,0,0
0:0:45.105,53.3698,6.79823,0,0.000885,0,0
0:0:45.798,54.722,6.9706,0,0.000885,0,0
0:0:46.506,55.9542,7.12228,0,0.000885,0,0
0:0:47.211,56.657,7.21192,0,0.000885,0,0
0:0:47.911,59.0012,7.51529,0,0.000885,0,0
0:0:48.611,60.2334,7.66697,0,0.000885,0,0
0:0:49.307,61.7013,7.85313,0,0.000885,0,0
0:0:49.999,62.9334,8.01171,0,0.000885,0,0
0:0:50.701,63.9298,8.14271,0,0.000885,0,0
0:0:51.397,65.3933,8.32887,0,0.000885,0,0
0:0:52.108,67.3906,8.57708,0,0.000885,0,0
0:0:52.813,68.387,8.70808,0,0.000885,0,0
0:0:53.507,69.3834,8.83218,0,0.000885,0,0
0:0:54.204,71.0248,9.04592,0,0.000885,0,0
0:0:54.903,72.4927,9.23208,0,0.000885,0,0
0:0:55.597,73.667,9.37687,0,0.000885,0,0
0:0:56.307,75.2506,9.58371,0,0.000885,0,0
0:0:57.013,76.4204,9.7285,0,0.000885,0,0
0:0:57.712,77.7104,9.89398,0,0.000885,0,0
0:0:58.411,79.1783,10.0801,0,0.000885,0,0
0:0:59.108,80.9977,10.3146,0,0.000885,0,0
0:0:59.802,82.0519,10.4456,0,0.000885,0,0
0:1:0.501,83.1061,10.5835,0,0.000885,0,0
0:1:1.201,84.8676,10.8041,0,0.000885,0,0
0:1:1.910,86.042,10.9558,0,0.000885,0,0
0:1:2.615,87.3898,11.1281,0,0.000885,0,0
0:1:3.309,89.2091,11.3557,0,0.000885,0,0
0:1:4.009,90.379,11.5073,0,0.000885,0,0
0:1:4.704,91.6111,11.6659,0,0.000885,0,0
0:1:5.399,92.8433,11.8245,0,0.000885,0,0
0:1:6.098,94.7783,12.0658,0,0.000885,0,0
0:1:6.807,95.9526,12.2175,0,0.000885,0,0
0:1:7.513,97.3582,12.3968,0,0.000885,0,0
0:1:8.212,98.3591,12.5209,0,0.000885,0,0
0:1:8.907,100.058,12.7415,0,0.000885,0,0
0:1:9.604,101.348,12.907,0,0.000885,0,0
0:1:10.301,102.46,13.0449,0,0.000885,0,0
0:1:11.004,103.692,13.2035,0,0.000885,0,0
0:1:11.713,105.921,13.4861,0,0.000885,0,0
0:1:12.416,106.86,13.6034,0,0.000885,0,0
0:1:13.111,108.15,13.7688,0,0.000885,0,0
0:1:13.811,109.502,13.9412,0,0.000885,0,0
0:1:14.505,110.556,14.0791,0,0.000885,0,0
0:1:15.202,112.14,14.279,0,0.000885,0,0
0:1:15.902,113.901,14.4997,0,0.000885,0,0
0:1:16.613,115.191,14.6651,0,0.000885,0,0
0:1:17.319,116.712,14.8582,0,0.000885,0,0
0:1:18.017,118.007,15.0237,0,0.000885,0,0
0:1:18.711,118.883,15.134,0,0.000885,0,0
0:1:19.413,120.938,15.396,0,0.000885,0,0
0:1:20.108,122.05,15.5408,0,0.000885,0,0
0:1:20.805,123.46,15.72,0,0.000885,0,0
0:1:21.514,124.572,15.8579,0,0.000885,0,0
0:1:22.219,125.511,15.982,0,0.000885,0,0
0:1:22.922,127.152,16.1889,0,0.000885,0,0
0:1:23.618,129.03,16.4302,0,0.000885,0,0
0:1:24.314,129.91,16.5405,0,0.000885,0,0
0:1:25.013,132.023,16.8094,0,0.000885,0,0
0:1:25.708,133.193,16.9611,0,0.000885,0,0
0:1:26.416,134.016,17.0645,0,0.000885,0,0
0:1:27.125,135.542,17.2576,0,0.000885,0,0
0:1:27.824,136.832,17.4231,0,0.000885,0,0
0:1:28.524,137.886,17.5541,0,0.000885,0,0
0:1:29.217,139.941,17.8161,0,0.000885,0,0
0:1:29.916,141.582,18.0298,0,0.000885,0,0
0:1:30.613,142.637,18.1608,0,0.000885,0,0
0:1:31.314,143.633,18.2849,0,0.000885,0,0
0:1:32.025,144.928,18.4504,0,0.000885,0,0
0:1:32.725,146.511,18.6572,0,0.000885,0,0
0:1:33.421,148.095,18.8572,0,0.000885,0,0
0:1:34.121,149.442,19.0295,0,0.000885,0,0
0:1:34.815,150.79,19.2019,0,0.000885,0,0
0:1:35.514,152.258,19.3881,0,0.000885,0,0
0:1:36.212,153.664,19.5673,0,0.000885,0,0
0:1:36.921,154.838,19.7121,0,0.000885,0,0
0:1:37.627,155.719,19.8293,0,0.000885,0,0
0:1:38.324,157.302,20.0293,0,0.000885,0,0
0:1:39.017,158.53,20.1878,0,0.000885,0,0
0:1:39.718,160.643,20.4567,0,0.000885,0,0
0:1:40.415,161.875,20.6084,0,0.000885,0,0
0:1:41.116,163.05,20.7601,0,0.000885,0,0
0:1:41.823,164.34,20.9256,0,0.000885,0,0
0:1:42.526,165.514,21.0704,0,0.000885,0,0
0:1:43.221,167.387,21.3117,0,0.000885,0,0
0:1:43.921,168.797,21.491,0,0.000885,0,0
0:1:44.613,170.144,21.6633,0,0.000885,0,0
0:1:45.310,171.492,21.8357,0,0.000885,0,0
0:1:46.010,173.018,22.0287,0,0.000885,0,0
0:1:46.718,173.547,22.0977,0,0.000885,0,0
0:1:47.423,175.718,22.3735,0,0.000885,0,0
0:1:48.121,177.008,22.539,0,0.000885,0,0
0:1:48.815,178.534,22.732,0,0.000885,0,0
0:1:49.513,179.882,22.9044,0,0.000885,0,0
0:1:50.210,181.056,23.0492,0,0.000885,0,0
0:1:50.905,182.346,23.2146,0,0.000885,0,0
0:1:51.614,183.636,23.3801,0,0.000885,0,0
0:1:52.320,185.099,23.5663,0,0.000885,0,0
0:1:53.020,186.509,23.7455,0,0.000885,0,0
0:1:53.719,187.799,23.911,0,0.000885,0,0
0:1:54.414,189.325,24.1041,0,0.000885,0,0
0:1:55.111,190.264,24.2282,0,0.000885,0,0
0:1:55.811,192.372,24.4971,0,0.000885,0,0
0:1:56.518,193.547,24.6419,0,0.000885,0,0
0:1:57.218,194.894,24.8142,0,0.000885,0,0
0:1:57.910,196.011,24.959,0,0.000885,0,0
0:1:58.599,197.181,25.1038,0,0.000885,0,0
0:1:59.292,198.475,25.2693,0,0.000885,0,0
0:1:59.983,199.939,25.4554,0,0.000885,0,0
0:2:0.683,201.7,25.683,0,0.000885,0,0
0:2:1.388,202.519,25.7864,0,0.000885,0,0
0:2:2.088,204.222,26.0001,0,0.000885,0,0
0:2:2.781,205.219,26.1311,0,0.000885,0,0
0:2:3.484,207.154,26.3724,0,0.000885,0,0
0:2:4.183,208.266,26.5172,0,0.000885,0,0
0:2:4.874,210.085,26.7517,0,0.000885,0,0
0:2:5.576,210.85,26.8482,0,0.000885,0,0
0:2:6.283,212.434,27.0481,0,0.000885,0,0
0:2:6.989,213.839,27.2274,0,0.000885,0,0
0:2:7.687,214.894,27.3584,0,0.000885,0,0
0:2:8.387,217.006,27.6273,0,0.000885,0,0
0:2:9.088,218.181,27.779,0,0.000885,0,0
0:2:9.790,219.529,27.9513,0,0.000885,0,0
0:2:10.489,220.583,28.0823,0,0.000885,0,0
0:2:11.192,221.699,28.2271,0,0.000885,0,0
0:2:11.896,223.577,28.4685,0,0.000885,0,0
0:2:12.596,225.102,28.6615,0,0.000885,0,0
0:2:13.290,226.156,28.7925,0,0.000885,0,0
0:2:13.987,227.504,28.9649,0,0.000885,0,0
0:2:14.691,229.146,29.1786,0,0.000885,0,0
0:2:15.392,230.671,29.3717,0,0.000885,0,0
0:2:16.088,231.61,29.4889,0,0.000885,0,0
0:2:16.792,233.194,29.6888,0,0.000885,0,0
0:2:17.489,234.719,29.8888,0,0.000885,0,0
0:2:18.188,235.894,30.0336,0,0.000885,0,0
0:2:18.884,237.241,30.2059,0,0.000885,0,0
0:2:19.583,238.589,30.3783,0,0.000885,0,0
0:2:20.283,239.937,30.5507,0,0.000885,0,0
0:2:20.990,241.521,30.7506,0,0.000885,0,0
0:2:21.693,242.815,30.9161,0,0.000885,0,0
0:2:22.394,244.221,31.0954,0,0.000885,0,0
0:2:23.086,244.808,31.1712,0,0.000885,0,0
0:2:23.783,246.507,31.3849,0,0.000885,0,0
0:2:24.488,248.211,31.6056,0,0.000885,0,0
0:2:25.190,249.732,31.7986,0,0.000885,0,0
0:2:25.886,251.084,31.971,0,0.000885,0,0
0:2:26.591,252.668,32.1709,0,0.000885,0,0
0:2:27.292,253.371,32.2606,0,0.000885,0,0
0:2:27.987,254.661,32.426,0,0.000885,0,0
0:2:28.693,256.774,32.6949,0,0.000885,0,0
0:2:29.392,257.77,32.819,0,0.000885,0,0
0:2:30.092,258.531,32.9156,0,0.000885,0,0
0:2:30.787,260.114,33.1155,0,0.000885,0,0
0:2:31.492,261.698,33.3224,0,0.000885,0,0
0:2:32.194,262.988,33.4878,0,0.000885,0,0
0:2:32.887,264.571,33.6878,0,0.000885,0,0
0:2:33.586,265.861,33.8533,0,0.000885,0,0
0:2:34.290,266.858,33.9774,0,0.000885,0,0
0:2:34.991,268.561,34.1911,0,0.000885,0,0
0:2:35.690,269.206,34.2738,0,0.000885,0,0
0:2:36.394,270.906,34.4945,0,0.000885,0,0
0:2:37.094,272.138,34.6531,0,0.000885,0,0
0:2:37.788,272.431,34.6875,0,0.000885,0,0
0:2:38.492,273.548,34.8323,0,0.000885,0,0
0:2:39.188,273.312,34.7978,0,0.000885,0,0
0:2:39.887,271.964,34.6255,0,0.000885,0,0
0:2:40.589,268.677,34.2118,0,0.000885,0,0
0:2:41.293,264.513,33.6809,0,0.000885,0,0
0:2:41.995,259.06,32.9845,0,0.000885,0,0
0:2:42.692,252.899,32.1985,0,0.000885,0,0
0:2:43.389,240.409,30.6127,0,0.000885,0,0
0:2:44.092,224.101,28.5305,0,0.000885,0,0
0:2:44.790,209.44,26.6689,0,0.000885,0,0
0:2:45.447,193.782,24.6763,0,0.000885,0,0