File: DataFile2021-06-30_073509.csv
Test ID:,Date Tested:,Time:,Test Type:,Diameter Avg. (mm):,Cyl. Corr. Factor:,Height (mm):,Age (days):,Weight (kN):,Break Type:,Ramp Rate (MPa/s):,Load at Break (kN):,Stress at Break (MPa):
12,6/30/2021,07:35,Cylinder,100,1,200,0,3.6,3,0.25,798.06,101.61
Sample Time,Load (kN),Stress (MPa),Long. Strain,Trans. Strain,Chan1 Deflection (mm),Chan2 Deflection (mm)
0:0:5.125,5.45352,0.69637,0,0.000885,0,0
0:0:6.818,8.21142,1.048,0,0.000885,0,0
0:0:8.525,11.73,1.49616,0,0.000885,0,0
0:0:10.220,15.0127,1.90985,0,0.000885,0,0
0:0:11.939,18.7092,2.38559,0,0.000885,0,0
0:0:13.627,22.2278,2.82685,0,0.000885,0,0
0:0:15.322,25.1591,3.20606,0,0.000885,0,0
0:0:17.042,28.74,3.66112,0,0.000885,0,0
0:0:18.731,31.5557,4.01964,0,0.000885,0,0
0:0:20.426,35.4256,4.50917,0,0.000885,0,0
0:0:22.144,38.5928,4.91596,0,0.000885,0,0
0:0:23.835,41.582,5.29517,0,0.000885,0,0
0:0:25.530,45.3941,5.77781,0,0.000885,0,0
0:0:27.248,48.6191,6.19149,0,0.000885,0,0
0:0:28.938,52.4935,6.68102,0,0.000885,0,0
0:0:30.633,55.8341,7.10849,0,0.000885,0,0
0:0:32.349,58.8856,7.4946,0,0.000885,0,0
0:0:34.036,61.8169,7.87381,0,0.000885,0,0
0:0:35.738,65.2198,8.30129,0,0.000885,0,0
0:0:37.449,68.3291,8.70118,0,0.000885,0,0
0:0:39.137,71.9055,9.15624,0,0.000885,0,0
0:0:40.840,75.3084,9.59061,0,0.000885,0,0
0:0:42.548,78.7068,10.025,0,0.000885,0,0
0:0:44.240,81.9362,10.4318,0,0.000885,0,0
0:0:45.940,85.0411,10.8248,0,0.000885,0,0
0:0:47.649,88.6797,11.2936,0,0.000885,0,0
0:0:49.339,91.7312,11.6797,0,0.000885,0,0
0:0:51.048,95.8369,12.2037,0,0.000885,0,0
0:0:52.749,98.6482,12.5622,0,0.000885,0,0
0:0:54.441,101.993,12.9828,0,0.000885,0,0
0:0:56.146,105.218,13.3965,0,0.000885,0,0
0:0:57.850,108.328,13.7895,0,0.000885,0,0
0:0:59.543,112.255,14.2928,0,0.000885,0,0
0:1:1.249,115.307,14.6789,0,0.000885,0,0
0:1:2.953,118.71,15.1133,0,0.000885,0,0
0:1:4.645,122.108,15.5477,0,0.000885,0,0
0:1:6.351,125.217,15.9407,0,0.000885,0,0
0:1:8.051,128.678,16.3819,0,0.000885,0,0
0:1:9.743,131.845,16.7887,0,0.000885,0,0
0:1:11.453,134.955,17.1817,0,0.000885,0,0
0:1:13.147,138.709,17.6575,0,0.000885,0,0
0:1:14.844,142.695,18.1677,0,0.000885,0,0
0:1:16.552,145.043,18.4642,0,0.000885,0,0
0:1:18.247,148.74,18.9399,0,0.000885,0,0
0:1:19.940,151.907,19.3398,0,0.000885,0,0
0:1:21.652,155.305,19.7742,0,0.000885,0,0
0:1:23.347,159.117,20.2568,0,0.000885,0,0
0:1:25.038,161.991,20.6222,0,0.000885,0,0
0:1:26.752,165.572,21.0842,0,0.000885,0,0
0:1:28.449,168.503,21.4565,0,0.000885,0,0
0:1:30.140,171.906,21.8909,0,0.000885,0,0
0:1:31.859,174.602,22.2287,0,0.000885,0,0
0:1:33.550,179.059,22.801,0,0.000885,0,0
0:1:35.241,182.226,23.2009,0,0.000885,0,0
0:1:36.959,185.571,23.6283,0,0.000885,0,0
0:1:38.650,188.68,24.0213,0,0.000885,0,0
0:1:40.340,192.199,24.4695,0,0.000885,0,0
0:1:42.045,195.775,24.9245,0,0.000885,0,0
0:1:43.736,198.475,25.2693,0,0.000885,0,0
0:1:45.421,202.052,25.7243,0,0.000885,0,0
0:1:47.129,205.512,26.1656,0,0.000885,0,0
0:1:48.829,208.679,26.5724,0,0.000885,0,0
0:1:50.533,212.198,27.0206,0,0.000885,0,0
0:1:52.231,215.249,27.4067,0,0.000885,0,0
0:1:53.931,218.706,27.8479,0,0.000885,0,0
0:1:55.625,221.935,28.2547,0,0.000885,0,0
0:1:57.321,226.041,28.7787,0,0.000885,0,0
0:1:59.021,228.972,29.151,0,0.000885,0,0
0:2:0.739,232.019,29.544,0,0.000885,0,0
0:2:2.439,235.186,29.9439,0,0.000885,0,0
0:2:4.114,238.883,30.4128,0,0.000885,0,0
0:2:5.802,241.756,30.7782,0,0.000885,0,0
0:2:7.498,245.337,31.2401,0,0.000885,0,0
0:2:9.178,249.149,31.7228,0,0.000885,0,0
0:2:10.863,252.196,32.1089,0,0.000885,0,0
0:2:12.562,255.19,32.495,0,0.000885,0,0
0:2:14.244,258.94,32.9707,0,0.000885,0,0
0:2:15.934,262.049,33.3637,0,0.000885,0,0
0:2:17.622,265.51,33.805,0,0.000885,0,0
0:2:19.333,268.383,34.1704,0,0.000885,0,0
0:2:21.043,272.196,34.6599,0,0.000885,0,0
0:2:22.733,274.486,34.9495,0,0.000885,0,0
0:2:24.432,279.001,35.5218,0,0.000885,0,0
0:2:26.123,281.991,35.901,0,0.000885,0,0
0:2:27.833,285.509,36.3492,0,0.000885,0,0
0:2:29.530,288.325,36.7077,0,0.000885,0,0
0:2:31.242,292.137,37.1972,0,0.000885,0,0
0:2:32.925,295.718,37.6523,0,0.000885,0,0
0:2:34.601,298.298,37.9832,0,0.000885,0,0
0:2:36.302,302.11,38.4659,0,0.000885,0,0
0:2:37.988,305.041,38.8382,0,0.000885,0,0
0:2:39.664,308.738,39.307,0,0.000885,0,0
0:2:41.363,311.905,39.7138,0,0.000885,0,0
0:2:43.051,315.072,40.1137,0,0.000885,0,0
0:2:44.735,318.884,40.6032,0,0.000885,0,0
0:2:46.436,322.051,41.0031,0,0.000885,0,0
0:2:48.121,325.57,41.4513,0,0.000885,0,0
0:2:49.798,328.737,41.8581,0,0.000885,0,0
0:2:51.501,332.313,42.3131,0,0.000885,0,0
0:2:53.183,335.187,42.6785,0,0.000885,0,0
0:2:54.860,338.412,43.0853,0,0.000885,0,0
0:2:56.565,342.108,43.5611,0,0.000885,0,0
0:2:58.246,345.218,43.9541,0,0.000885,0,0
0:2:59.941,347.913,44.2988,0,0.000885,0,0
0:3:1.643,351.61,44.7677,0,0.000885,0,0
0:3:3.337,355.013,45.202,0,0.000885,0,0
0:3:5.039,358.589,45.6571,0,0.000885,0,0
0:3:6.746,361.64,46.0432,0,0.000885,0,0
0:3:8.446,364.923,46.4638,0,0.000885,0,0
0:3:10.140,368.735,46.9464,0,0.000885,0,0
0:3:11.843,371.96,47.3601,0,0.000885,0,0
0:3:13.542,375.127,47.76,0,0.000885,0,0
0:3:15.244,378.472,48.1875,0,0.000885,0,0
0:3:16.942,381.875,48.6218,0,0.000885,0,0
0:3:18.642,385.216,49.0493,0,0.000885,0,0
0:3:20.340,388.677,49.4906,0,0.000885,0,0
0:3:22.039,392.022,49.9111,0,0.000885,0,0
0:3:23.739,394.833,50.2697,0,0.000885,0,0
0:3:25.436,397.885,50.6627,0,0.000885,0,0
0:3:27.139,401.523,51.1246,0,0.000885,0,0
0:3:28.840,405.215,51.5935,0,0.000885,0,0
0:3:30.550,408.854,52.0554,0,0.000885,0,0
0:3:32.240,411.67,52.4139,0,0.000885,0,0
0:3:33.936,415.246,52.869,0,0.000885,0,0
0:3:35.646,418.235,53.2482,0,0.000885,0,0
0:3:37.343,421.696,53.6895,0,0.000885,0,0
0:3:39.047,425.099,54.1238,0,0.000885,0,0
0:3:40.745,428.444,54.5513,0,0.000885,0,0
0:3:42.440,431.727,54.9719,0,0.000885,0,0
0:3:44.146,435.009,55.3856,0,0.000885,0,0
0:3:45.844,438.764,55.8682,0,0.000885,0,0
0:3:47.538,441.522,56.213,0,0.000885,0,0
0:3:49.244,445.098,56.6749,0,0.000885,0,0
0:3:50.951,448.385,57.0886,0,0.000885,0,0
0:3:52.647,452.135,57.5712,0,0.000885,0,0
0:3:54.342,454.951,57.9229,0,0.000885,0,0
0:3:56.043,458.118,58.3296,0,0.000885,0,0
0:3:57.751,462.344,58.8674,0,0.000885,0,0
0:3:59.448,465.275,59.2398,0,0.000885,0,0
0:4:1.150,468.149,59.6052,0,0.000885,0,0
0:4:2.849,472.019,60.1016,0,0.000885,0,0
0:4:4.547,474.719,60.4394,0,0.000885,0,0
0:4:6.248,478.179,60.8807,0,0.000885,0,0
0:4:7.947,481.756,61.3358,0,0.000885,0,0
0:4:9.647,485.216,61.777,0,0.000885,0,0
0:4:11.345,488.032,62.1356,0,0.000885,0,0
0:4:13.046,492.138,62.6596,0,0.000885,0,0
0:4:14.748,495.243,63.0595,0,0.000885,0,0
0:4:16.455,498.824,63.5145,0,0.000885,0,0
0:4:18.146,501.697,63.8799,0,0.000885,0,0
0:4:19.848,505.331,64.3419,0,0.000885,0,0
0:4:21.558,508.498,64.7418,0,0.000885,0,0
0:4:23.249,511.55,65.1348,0,0.000885,0,0
0:4:24.948,515.068,65.5829,0,0.000885,0,0
0:4:26.658,518.996,66.0794,0,0.000885,0,0
0:4:28.340,521.812,66.4379,0,0.000885,0,0
0:4:30.052,525.624,66.9274,0,0.000885,0,0
0:4:31.753,528.382,67.279,0,0.000885,0,0
0:4:33.446,531.958,67.7341,0,0.000885,0,0
0:4:35.147,535.477,68.1823,0,0.000885,0,0
0:4:36.848,538.586,68.5753,0,0.000885,0,0
0:4:38.549,542.047,69.0165,0,0.000885,0,0
0:4:40.251,545.334,69.4371,0,0.000885,0,0
0:4:41.955,548.911,69.8922,0,0.000885,0,0
0:4:43.647,552.251,70.3127,0,0.000885,0,0
0:4:45.356,555.654,70.7471,0,0.000885,0,0
0:4:47.055,558.648,71.1263,0,0.000885,0,0
0:4:48.757,561.93,71.5469,0,0.000885,0,0
0:4:50.448,564.982,71.933,0,0.000885,0,0
0:4:52.150,569.025,72.4501,0,0.000885,0,0
0:4:53.850,572.37,72.8776,0,0.000885,0,0
0:4:55.551,575.008,73.2154,0,0.000885,0,0
0:4:57.254,578.763,73.6912,0,0.000885,0,0
0:4:58.951,582.223,74.1324,0,0.000885,0,0
0:5:0.664,585.39,74.5323,0,0.000885,0,0
0:5:2.364,589.029,74.9943,0,0.000885,0,0
0:5:4.056,592.081,75.3873,0,0.000885,0,0
0:5:5.765,595.426,75.8148,0,0.000885,0,0
0:5:7.469,598.655,76.2215,0,0.000885,0,0
0:5:9.154,602.236,76.6766,0,0.000885,0,0
0:5:10.860,604.7,76.9938,0,0.000885,0,0
0:5:12.566,608.695,77.504,0,0.000885,0,0
0:5:14.250,612.275,77.959,0,0.000885,0,0
0:5:15.965,615.563,78.3727,0,0.000885,0,0
0:5:17.662,619.259,78.8484,0,0.000885,0,0
0:5:19.354,622.017,79.2001,0,0.000885,0,0
0:5:21.069,625.656,79.662,0,0.000885,0,0
0:5:22.767,628.476,80.0206,0,0.000885,0,0
0:5:24.461,632.288,80.5032,0,0.000885,0,0
0:5:26.167,635.402,80.9031,0,0.000885,0,0
0:5:27.863,638.453,81.2892,0,0.000885,0,0
0:5:29.545,641.74,81.7098,0,0.000885,0,0
0:5:31.265,645.793,82.2269,0,0.000885,0,0
0:5:32.961,648.96,82.6268,0,0.000885,0,0
0:5:34.654,651.602,82.9646,0,0.000885,0,0
0:5:36.361,655.241,83.4266,0,0.000885,0,0
0:5:38.054,658.822,83.8816,0,0.000885,0,0
0:5:39.756,661.815,84.2677,0,0.000885,0,0
0:5:41.464,665.805,84.771,0,0.000885,0,0
0:5:43.156,668.683,85.1365,0,0.000885,0,0
0:5:44.861,672.38,85.6122,0,0.000885,0,0
0:5:46.576,675.787,86.0466,0,0.000885,0,0
0:5:48.263,678.839,86.4327,0,0.000885,0,0
0:5:49.959,682.184,86.8602,0,0.000885,0,0
0:5:51.673,685.235,87.2463,0,0.000885,0,0
0:5:53.362,689.461,87.784,0,0.000885,0,0
0:5:55.063,692.045,88.115,0,0.000885,0,0
0:5:56.773,695.626,88.5701,0,0.000885,0,0
0:5:58.462,698.913,88.9906,0,0.000885,0,0
0:6:0.161,702.316,89.425,0,0.000885,0,0
0:6:1.867,705.43,89.818,0,0.000885,0,0
0:6:3.566,709.069,90.28,0,0.000885,0,0
0:6:5.264,712.356,90.7005,0,0.000885,0,0
0:6:6.974,715.585,91.1142,0,0.000885,0,0
0:6:8.663,719.046,91.5486,0,0.000885,0,0
0:6:10.360,722.276,91.9623,0,0.000885,0,0
0:6:12.068,725.856,92.4173,0,0.000885,0,0
0:6:13.765,728.792,92.7896,0,0.000885,0,0
0:6:15.463,732.373,93.2516,0,0.000885,0,0
0:6:17.172,735.66,93.6653,0,0.000885,0,0
0:6:18.868,739.299,94.1272,0,0.000885,0,0
0:6:20.565,742.35,94.5202,0,0.000885,0,0
0:6:22.264,745.816,94.9615,0,0.000885,0,0
0:6:23.959,748.809,95.3407,0,0.000885,0,0
0:6:25.653,752.448,95.8027,0,0.000885,0,0
0:6:27.355,756.202,96.2853,0,0.000885,0,0
0:6:29.061,758.671,96.5955,0,0.000885,0,0
0:6:30.753,762.31,97.0575,0,0.000885,0,0
0:6:32.469,765.89,97.5194,0,0.000885,0,0
0:6:34.151,768.533,97.8504,0,0.000885,0,0
0:6:35.868,772.465,98.3537,0,0.000885,0,0
0:6:37.562,775.516,98.7398,0,0.000885,0,0
0:6:39.268,778.861,99.1673,0,0.000885,0,0
0:6:40.976,778.688,99.1466,0,0.000885,0,0
0:6:42.671,784.791,99.9257,0,0.000885,0,0
0:6:44.368,789.719,100.553,0,0.000885,0,0
0:6:46.077,793.3,101.008,0,0.000885,0,0
0:6:47.775,796.414,101.401,0,0.000885,0,0
0:6:49.469,794.71,101.187,0,0.000885,0,0
0:6:50.974,796.12,101.367,0,0.000885,0,0