File: DataFile2021-06-08_050942.csv
Test ID:,Date Tested:,Time:,Test Type:,Diameter Avg. (mm):,Cyl. Corr. Factor:,Height (mm):,Age (days):,Weight (kN):,Break Type:,Ramp Rate (MPa/s):,Load at Break (kN):,Stress at Break (MPa):
12,6/8/2021,05:09,Cylinder,150,1,300,0,3.6,1,0.24,852.64,48.25
Sample Time,Load (kN),Stress (MPa),Long. Strain,Trans. Strain,Chan1 Deflection (mm),Chan2 Deflection (mm)
0:0:13.916,5.57362,0.317159,0,0.000885,0,0
0:0:14.811,17.1835,0.972161,0,0.000885,0,0
0:0:15.714,16.3027,0.923897,0,0.000885,0,0
0:0:16.607,16.2449,0.917003,0,0.000885,0,0
0:0:17.509,20.9378,1.1859,0,0.000885,0,0
0:0:18.415,25.3371,1.43411,0,0.000885,0,0
0:0:19.314,29.7942,1.68922,0,0.000885,0,0
0:0:20.228,33.8421,1.91674,0,0.000885,0,0
0:0:21.130,37.4184,2.11669,0,0.000885,0,0
0:0:22.025,41.6398,2.35801,0,0.000885,0,0
0:0:22.923,45.6877,2.58553,0,0.000885,0,0
0:0:23.821,49.4998,2.79927,0,0.000885,0,0
0:0:24.723,53.432,3.0268,0,0.000885,0,0
0:0:25.634,57.3598,3.24743,0,0.000885,0,0
0:0:26.531,61.4077,3.47496,0,0.000885,0,0
0:0:27.428,65.5134,3.70938,0,0.000885,0,0
0:0:28.323,69.0898,3.90933,0,0.000885,0,0
0:0:29.217,72.4348,4.09549,0,0.000885,0,0
0:0:30.130,77.7727,4.39886,0,0.000885,0,0
0:0:31.040,81.5848,4.61949,0,0.000885,0,0
0:0:31.938,84.9254,4.80565,0,0.000885,0,0
0:0:32.831,89.4404,5.06075,0,0.000885,0,0
0:0:33.726,92.6075,5.24002,0,0.000885,0,0
0:0:34.627,97.594,5.5227,0,0.000885,0,0
0:0:35.538,100.525,5.68817,0,0.000885,0,0
0:0:36.441,105.338,5.96397,0,0.000885,0,0
0:0:37.335,108.737,6.15012,0,0.000885,0,0
0:0:38.233,113.43,6.41902,0,0.000885,0,0
0:0:39.131,116.481,6.59139,0,0.000885,0,0
0:0:40.043,121.29,6.86028,0,0.000885,0,0
0:0:40.946,125.338,7.09471,0,0.000885,0,0
0:0:41.843,128.442,7.26707,0,0.000885,0,0
0:0:42.741,132.784,7.51529,0,0.000885,0,0
0:0:43.637,137.068,7.7566,0,0.000885,0,0
0:0:44.541,140.995,7.97723,0,0.000885,0,0
0:0:45.451,144.865,8.19787,0,0.000885,0,0
0:0:46.348,148.677,8.4116,0,0.000885,0,0
0:0:47.247,153.134,8.66671,0,0.000885,0,0
0:0:48.142,156.947,8.88045,0,0.000885,0,0
0:0:49.035,160.585,9.08729,0,0.000885,0,0
0:0:49.949,164.749,9.32171,0,0.000885,0,0
0:0:50.857,169.206,9.57682,0,0.000885,0,0
0:0:51.754,172.373,9.75608,0,0.000885,0,0
0:0:52.647,176.479,9.98361,0,0.000885,0,0
0:0:53.545,180.82,10.2318,0,0.000885,0,0
0:0:54.444,184.926,10.4662,0,0.000885,0,0
0:0:55.357,188.502,10.6662,0,0.000885,0,0
0:0:56.257,192.844,10.9144,0,0.000885,0,0
0:0:57.148,197.243,11.1626,0,0.000885,0,0
0:0:58.040,200.29,11.335,0,0.000885,0,0
0:0:58.928,204.689,11.5832,0,0.000885,0,0
0:0:59.824,207.741,11.7556,0,0.000885,0,0
0:1:0.727,212.198,12.0107,0,0.000885,0,0
0:1:1.622,216.184,12.2313,0,0.000885,0,0
0:1:2.511,219.764,12.4381,0,0.000885,0,0
0:1:3.397,224.457,12.7001,0,0.000885,0,0
0:1:4.301,228.327,12.9208,0,0.000885,0,0
0:1:5.207,231.437,13.0931,0,0.000885,0,0
0:1:6.102,236.187,13.362,0,0.000885,0,0
0:1:6.990,239.879,13.5758,0,0.000885,0,0
0:1:7.900,243.985,13.8102,0,0.000885,0,0
0:1:8.800,248.211,14.0446,0,0.000885,0,0
0:1:9.699,251.671,14.2446,0,0.000885,0,0
0:1:10.601,255.773,14.4721,0,0.000885,0,0
0:1:11.494,260.234,14.7272,0,0.000885,0,0
0:1:12.393,263.811,14.9271,0,0.000885,0,0
0:1:13.280,267.859,15.1547,0,0.000885,0,0
0:1:14.169,271.551,15.3684,0,0.000885,0,0
0:1:15.073,275.95,15.6166,0,0.000885,0,0
0:1:15.973,279.295,15.8028,0,0.000885,0,0
0:1:16.860,283.107,16.0234,0,0.000885,0,0
0:1:17.751,288.618,16.3337,0,0.000885,0,0
0:1:18.641,291.786,16.5129,0,0.000885,0,0
0:1:19.542,295.304,16.7129,0,0.000885,0,0
0:1:20.442,299.116,16.9266,0,0.000885,0,0
0:1:21.333,303.342,17.1679,0,0.000885,0,0
0:1:22.226,307.679,17.4093,0,0.000885,0,0
0:1:23.114,311.963,17.6506,0,0.000885,0,0
0:1:24.000,314.658,17.8092,0,0.000885,0,0
0:1:24.907,319.058,18.0574,0,0.000885,0,0
0:1:25.809,323.986,18.3332,0,0.000885,0,0
0:1:26.705,327.505,18.5331,0,0.000885,0,0
0:1:27.593,331.139,18.74,0,0.000885,0,0
0:1:28.486,334.368,18.9192,0,0.000885,0,0
0:1:29.375,338.883,19.1743,0,0.000885,0,0
0:1:30.282,343.576,19.4432,0,0.000885,0,0
0:1:31.177,347.388,19.657,0,0.000885,0,0
0:1:32.069,350.729,19.85,0,0.000885,0,0
0:1:32.957,354.835,20.0775,0,0.000885,0,0
0:1:33.845,358.94,20.312,0,0.000885,0,0
0:1:34.751,362.637,20.5188,0,0.000885,0,0
0:1:35.652,365.977,20.7119,0,0.000885,0,0
0:1:36.540,371.022,20.9945,0,0.000885,0,0
0:1:37.429,374.189,21.1738,0,0.000885,0,0
0:1:38.319,378.352,21.4082,0,0.000885,0,0
0:1:39.213,382.814,21.6633,0,0.000885,0,0
0:1:40.116,386.448,21.8702,0,0.000885,0,0
0:1:41.008,389.967,22.0701,0,0.000885,0,0
0:1:41.899,393.485,22.2701,0,0.000885,0,0
0:1:42.790,397.827,22.5114,0,0.000885,0,0
0:1:43.678,402.106,22.7527,0,0.000885,0,0
0:1:44.583,405.802,22.9664,0,0.000885,0,0
0:1:45.483,410.495,23.2284,0,0.000885,0,0
0:1:46.372,414.952,23.4835,0,0.000885,0,0
0:1:47.258,418.062,23.6559,0,0.000885,0,0
0:1:48.147,421.989,23.8765,0,0.000885,0,0
0:1:49.041,425.859,24.0972,0,0.000885,0,0
0:1:49.947,430.027,24.3316,0,0.000885,0,0
0:1:50.841,434.133,24.566,0,0.000885,0,0
0:1:51.731,437.652,24.766,0,0.000885,0,0
0:1:52.623,441.464,24.9797,0,0.000885,0,0
0:1:53.509,445.156,25.1934,0,0.000885,0,0
0:1:54.406,449.733,25.4485,0,0.000885,0,0
0:1:55.309,453.487,25.6623,0,0.000885,0,0
0:1:56.205,457.531,25.8898,0,0.000885,0,0
0:1:57.105,460.76,26.076,0,0.000885,0,0
0:1:58.001,465.217,26.3242,0,0.000885,0,0
0:1:58.892,469.617,26.5724,0,0.000885,0,0
0:1:59.793,473.78,26.8137,0,0.000885,0,0
0:2:0.693,476.947,26.993,0,0.000885,0,0
0:2:1.583,480.817,27.2067,0,0.000885,0,0
0:2:2.472,484.923,27.4411,0,0.000885,0,0
0:2:3.362,489.38,27.6962,0,0.000885,0,0
0:2:4.263,493.601,27.9307,0,0.000885,0,0
0:2:5.167,496.359,28.0892,0,0.000885,0,0
0:2:6.056,500.465,28.3237,0,0.000885,0,0
0:2:6.949,505.331,28.5926,0,0.000885,0,0
0:2:7.840,509.028,28.8063,0,0.000885,0,0
0:2:8.727,512.956,29.0269,0,0.000885,0,0
0:2:9.634,516.358,29.22,0,0.000885,0,0
0:2:10.532,520.642,29.4613,0,0.000885,0,0
0:2:11.425,525.041,29.7095,0,0.000885,0,0
0:2:12.312,528.209,29.8888,0,0.000885,0,0
0:2:13.208,532.959,30.1577,0,0.000885,0,0
0:2:14.103,536.358,30.3507,0,0.000885,0,0
0:2:15.009,540.521,30.5851,0,0.000885,0,0
0:2:15.917,544.92,30.8334,0,0.000885,0,0
0:2:16.824,548.853,31.0609,0,0.000885,0,0
0:2:17.712,552.313,31.2539,0,0.000885,0,0
0:2:18.612,556.65,31.5021,0,0.000885,0,0
0:2:19.514,560.111,31.6952,0,0.000885,0,0
0:2:20.420,564.337,31.9365,0,0.000885,0,0
0:2:21.314,568.616,32.1778,0,0.000885,0,0
0:2:22.206,572.019,32.3709,0,0.000885,0,0
0:2:23.108,576.592,32.626,0,0.000885,0,0
0:2:24.027,580.462,32.8466,0,0.000885,0,0
0:2:24.932,584.745,33.0879,0,0.000885,0,0
0:2:25.830,588.148,33.281,0,0.000885,0,0
0:2:26.721,592.134,33.5085,0,0.000885,0,0
0:2:27.624,595.95,33.7223,0,0.000885,0,0
0:2:28.525,600.412,33.9774,0,0.000885,0,0
0:2:29.435,603.757,34.1635,0,0.000885,0,0
0:2:30.342,607.632,34.3842,0,0.000885,0,0
0:2:31.234,612.68,34.6737,0,0.000885,0,0
0:2:32.127,616.555,34.8875,0,0.000885,0,0
0:2:33.022,619.606,35.0598,0,0.000885,0,0
0:2:33.921,624.477,35.3356,0,0.000885,0,0
0:2:34.830,629.001,35.5907,0,0.000885,0,0
0:2:35.728,632.11,35.77,0,0.000885,0,0
0:2:36.622,635.397,35.9562,0,0.000885,0,0
0:2:37.519,640.095,36.2251,0,0.000885,0,0
0:2:38.417,644.614,36.4802,0,0.000885,0,0
0:2:39.321,648.546,36.7008,0,0.000885,0,0
0:2:40.227,652.478,36.9214,0,0.000885,0,0
0:2:41.127,655.53,37.0938,0,0.000885,0,0
0:2:42.019,659.524,37.3213,0,0.000885,0,0
0:2:42.908,663.866,37.5695,0,0.000885,0,0
0:2:43.807,668.443,37.8246,0,0.000885,0,0
0:2:44.716,671.966,38.0246,0,0.000885,0,0
0:2:45.616,675.431,38.2245,0,0.000885,0,0
0:2:46.516,679.306,38.4383,0,0.000885,0,0
0:2:47.412,684.234,38.721,0,0.000885,0,0
0:2:48.304,687.815,38.9209,0,0.000885,0,0
0:2:49.216,691.805,39.1484,0,0.000885,0,0
0:2:50.125,695.328,39.3484,0,0.000885,0,0
0:2:51.021,699.554,39.5897,0,0.000885,0,0
0:2:51.914,703.135,39.7896,0,0.000885,0,0
0:2:52.808,708.126,40.0723,0,0.000885,0,0
0:2:53.699,711.764,40.2792,0,0.000885,0,0
0:2:54.612,715.697,40.4998,0,0.000885,0,0
0:2:55.515,719.398,40.7066,0,0.000885,0,0
0:2:56.417,722.978,40.9135,0,0.000885,0,0
0:2:57.312,727.907,41.1893,0,0.000885,0,0
0:2:58.215,730.723,41.3479,0,0.000885,0,0
0:2:59.113,735.536,41.6236,0,0.000885,0,0
0:3:0.026,739.179,41.8305,0,0.000885,0,0
0:3:0.929,743.756,42.0856,0,0.000885,0,0
0:3:1.828,747.452,42.2993,0,0.000885,0,0
0:3:2.724,750.975,42.4993,0,0.000885,0,0
0:3:3.619,755.259,42.7406,0,0.000885,0,0
0:3:4.518,758.546,42.9268,0,0.000885,0,0
0:3:5.428,763.479,43.2025,0,0.000885,0,0
0:3:6.323,767.412,43.4232,0,0.000885,0,0
0:3:7.218,771.228,43.6438,0,0.000885,0,0
0:3:8.123,774.983,43.8576,0,0.000885,0,0
0:3:9.025,778.915,44.0782,0,0.000885,0,0
0:3:9.932,782.909,44.3057,0,0.000885,0,0
0:3:10.829,787.077,44.5401,0,0.000885,0,0
0:3:11.733,790.658,44.7401,0,0.000885,0,0
0:3:12.625,794.764,44.9745,0,0.000885,0,0
0:3:13.515,798.932,45.2089,0,0.000885,0,0
0:3:14.425,802.926,45.4365,0,0.000885,0,0
0:3:15.331,806.801,45.6571,0,0.000885,0,0
0:3:16.225,811.2,45.9053,0,0.000885,0,0
0:3:17.115,814.02,46.0639,0,0.000885,0,0
0:3:18.019,819.007,46.3466,0,0.000885,0,0
0:3:18.917,822.939,46.5672,0,0.000885,0,0
0:3:19.827,826.288,46.7602,0,0.000885,0,0
0:3:20.728,830.866,47.0153,0,0.000885,0,0
0:3:21.630,833.975,47.1946,0,0.000885,0,0
0:3:22.525,837.849,47.4152,0,0.000885,0,0
0:3:23.419,842.017,47.6497,0,0.000885,0,0
0:3:24.325,845.189,47.8289,0,0.000885,0,0
0:3:25.233,848.712,48.0289,0,0.000885,0,0
0:3:26.127,852.173,48.2219,0,0.000885,0,0
0:3:27.031,851.35,48.1737,0,0.000885,0,0
0:3:27.919,836.559,47.3394,0,0.000885,0,0
0:3:28.642,679.773,38.4659,0,0.000885,0,0