File: DataFile2021-06-07_043106.csv
Test ID:,Date Tested:,Time:,Test Type:,Diameter Avg. (mm):,Cyl. Corr. Factor:,Height (mm):,Age (days):,Weight (kN):,Break Type:,Ramp Rate (MPa/s):,Load at Break (kN):,Stress at Break (MPa):
12,6/7/2021,04:31,Cylinder,100,1,200,0,3.6,3,0.24,496.47,63.21
Sample Time,Load (kN),Stress (MPa),Long. Strain,Trans. Strain,Chan1 Deflection (mm),Chan2 Deflection (mm)
0:0:19.204,5.8672,0.744634,0,0.000885,0,0
0:0:20.294,13.1356,1.67543,0,0.000885,0,0
0:0:21.384,12.5529,1.59958,0,0.000885,0,0
0:0:22.473,12.2015,1.55132,0,0.000885,0,0
0:0:23.562,13.0199,1.65474,0,0.000885,0,0
0:0:24.659,14.3678,1.82711,0,0.000885,0,0
0:0:25.770,17.8863,2.27527,0,0.000885,0,0
0:0:26.866,20.5285,2.61311,0,0.000885,0,0
0:0:27.960,23.1085,2.94406,0,0.000885,0,0
0:0:29.054,25.1013,3.19917,0,0.000885,0,0
0:0:30.168,26.5114,3.37843,0,0.000885,0,0
0:0:31.271,28.4464,3.61975,0,0.000885,0,0
0:0:32.365,30.9685,3.9438,0,0.000885,0,0
0:0:33.460,32.3742,4.12306,0,0.000885,0,0
0:0:34.556,34.5449,4.39886,0,0.000885,0,0
0:0:35.669,37.9478,4.83322,0,0.000885,0,0
0:0:36.771,40.7635,5.19175,0,0.000885,0,0
0:0:37.864,42.6407,5.42617,0,0.000885,0,0
0:0:38.955,44.3399,5.64681,0,0.000885,0,0
0:0:40.066,46.1014,5.86744,0,0.000885,0,0
0:0:41.168,48.0363,6.11565,0,0.000885,0,0
0:0:42.263,50.1448,6.38455,0,0.000885,0,0
0:0:43.360,52.7248,6.71549,0,0.000885,0,0
0:0:44.467,54.722,6.9706,0,0.000885,0,0
0:0:45.578,57.1863,7.28086,0,0.000885,0,0
0:0:46.677,59.237,7.54286,0,0.000885,0,0
0:0:47.771,61.7591,7.86002,0,0.000885,0,0
0:0:48.865,63.4005,8.07376,0,0.000885,0,0
0:0:49.969,65.4556,8.33576,0,0.000885,0,0
0:0:51.081,67.8576,8.63913,0,0.000885,0,0
0:0:52.177,69.9127,8.90113,0,0.000885,0,0
0:0:53.269,72.1413,9.18382,0,0.000885,0,0
0:0:54.363,74.7212,9.51477,0,0.000885,0,0
0:0:55.473,75.9534,9.67334,0,0.000885,0,0
0:0:56.575,78.1819,9.95603,0,0.000885,0,0
0:0:57.669,80.9398,10.3077,0,0.000885,0,0
0:0:58.764,82.8748,10.549,0,0.000885,0,0
0:0:59.870,85.1612,10.8455,0,0.000885,0,0
0:1:0.979,87.2118,11.1075,0,0.000885,0,0
0:1:2.072,89.734,11.4246,0,0.000885,0,0
0:1:3.164,91.4376,11.6452,0,0.000885,0,0
0:1:4.259,93.4304,11.8935,0,0.000885,0,0
0:1:5.371,96.304,12.2589,0,0.000885,0,0
0:1:6.475,97.8876,12.4657,0,0.000885,0,0
0:1:7.569,99.9382,12.7277,0,0.000885,0,0
0:1:8.666,102.229,13.0173,0,0.000885,0,0
0:1:9.761,104.689,13.3276,0,0.000885,0,0
0:1:10.874,106.686,13.5827,0,0.000885,0,0
0:1:11.969,108.679,13.8378,0,0.000885,0,0
0:1:13.064,110.556,14.0791,0,0.000885,0,0
0:1:14.160,113.02,14.3894,0,0.000885,0,0
0:1:15.265,115.307,14.6789,0,0.000885,0,0
0:1:16.374,117.242,14.9271,0,0.000885,0,0
0:1:17.467,119.706,15.2443,0,0.000885,0,0
0:1:18.560,121.819,15.5132,0,0.000885,0,0
0:1:19.671,123.87,15.7683,0,0.000885,0,0
0:1:20.782,126.276,16.0786,0,0.000885,0,0
0:1:21.878,128.678,16.3819,0,0.000885,0,0
0:1:22.973,130.026,16.5543,0,0.000885,0,0
0:1:24.068,132.432,16.8646,0,0.000885,0,0
0:1:25.173,135.07,17.1955,0,0.000885,0,0
0:1:26.280,136.89,17.4299,0,0.000885,0,0
0:1:27.374,139.296,17.7333,0,0.000885,0,0
0:1:28.468,141.347,17.9953,0,0.000885,0,0
0:1:29.563,143.108,18.2228,0,0.000885,0,0
0:1:30.676,145.862,18.5745,0,0.000885,0,0
0:1:31.778,148.095,18.8572,0,0.000885,0,0
0:1:32.872,149.442,19.0295,0,0.000885,0,0
0:1:33.965,151.787,19.326,0,0.000885,0,0
0:1:35.073,154.429,19.6638,0,0.000885,0,0
0:1:36.175,156.186,19.8845,0,0.000885,0,0
0:1:37.270,158.592,20.1947,0,0.000885,0,0
0:1:38.364,160.763,20.4705,0,0.000885,0,0
0:1:39.459,162.52,20.6912,0,0.000885,0,0
0:1:40.571,165.394,21.0566,0,0.000885,0,0
0:1:41.671,167.507,21.3255,0,0.000885,0,0
0:1:42.764,168.797,21.491,0,0.000885,0,0
0:1:43.865,171.319,21.815,0,0.000885,0,0
0:1:44.972,173.783,22.1253,0,0.000885,0,0
0:1:46.080,175.834,22.3873,0,0.000885,0,0
0:1:47.176,177.889,22.6493,0,0.000885,0,0
0:1:48.270,179.588,22.863,0,0.000885,0,0
0:1:49.364,181.995,23.1733,0,0.000885,0,0
0:1:50.470,184.517,23.4904,0,0.000885,0,0
0:1:51.573,186.803,23.7869,0,0.000885,0,0
0:1:52.668,189.147,24.0834,0,0.000885,0,0
0:1:53.762,190.909,24.304,0,0.000885,0,0
0:1:54.873,192.666,24.5315,0,0.000885,0,0
0:1:55.976,195.188,24.8556,0,0.000885,0,0
0:1:57.063,197.181,25.1038,0,0.000885,0,0
0:1:58.167,199.472,25.4003,0,0.000885,0,0
0:1:59.261,201.7,25.683,0,0.000885,0,0
0:2:0.373,203.809,25.9519,0,0.000885,0,0
0:2:1.468,205.922,26.2208,0,0.000885,0,0
0:2:2.553,208.622,26.5655,0,0.000885,0,0
0:2:3.649,209.734,26.7034,0,0.000885,0,0
0:2:4.769,212.843,27.1033,0,0.000885,0,0
0:2:5.873,215.072,27.386,0,0.000885,0,0
0:2:6.970,216.949,27.6204,0,0.000885,0,0
0:2:8.063,218.884,27.8686,0,0.000885,0,0
0:2:9.158,221.228,28.1651,0,0.000885,0,0
0:2:10.265,223.105,28.4064,0,0.000885,0,0
0:2:11.370,225.627,28.7305,0,0.000885,0,0
0:2:12.455,227.095,28.9166,0,0.000885,0,0
0:2:13.559,229.617,29.2338,0,0.000885,0,0
0:2:14.671,231.788,29.5096,0,0.000885,0,0
0:2:15.772,233.959,29.7854,0,0.000885,0,0
0:2:16.857,236.303,30.0887,0,0.000885,0,0
0:2:17.956,238.647,30.3852,0,0.000885,0,0
0:2:19.064,240.409,30.6127,0,0.000885,0,0
0:2:20.172,243.46,30.9988,0,0.000885,0,0
0:2:21.269,244.981,31.1919,0,0.000885,0,0
0:2:22.363,246.979,31.447,0,0.000885,0,0
0:2:23.459,248.914,31.6952,0,0.000885,0,0
0:2:24.546,251.2,31.9848,0,0.000885,0,0
0:2:25.652,253.958,32.3364,0,0.000885,0,0
0:2:26.768,256.186,32.6191,0,0.000885,0,0
0:2:27.871,257.476,32.7846,0,0.000885,0,0
0:2:28.966,260.586,33.1776,0,0.000885,0,0
0:2:30.072,261.818,33.3362,0,0.000885,0,0
0:2:31.175,263.811,33.5913,0,0.000885,0,0
0:2:32.272,266.333,33.9084,0,0.000885,0,0
0:2:33.368,269.028,34.2532,0,0.000885,0,0
0:2:34.472,270.848,34.4876,0,0.000885,0,0
0:2:35.575,272.841,34.7427,0,0.000885,0,0
0:2:36.671,275.131,35.0323,0,0.000885,0,0
0:2:37.768,276.773,35.2391,0,0.000885,0,0
0:2:38.866,279.526,35.5907,0,0.000885,0,0
0:2:39.970,281.875,35.8872,0,0.000885,0,0
0:2:41.069,283.458,36.0941,0,0.000885,0,0
0:2:42.161,285.042,36.294,0,0.000885,0,0
0:2:43.270,288.325,36.7077,0,0.000885,0,0
0:2:44.367,290.847,37.0317,0,0.000885,0,0
0:2:45.472,292.902,37.2937,0,0.000885,0,0
0:2:46.563,294.486,37.4937,0,0.000885,0,0
0:2:47.649,295.655,37.6454,0,0.000885,0,0
0:2:48.753,298.649,38.0246,0,0.000885,0,0
0:2:49.869,300.993,38.3211,0,0.000885,0,0
0:2:50.971,303.222,38.6106,0,0.000885,0,0
0:2:52.071,305.157,38.852,0,0.000885,0,0
0:2:53.162,307.328,39.1277,0,0.000885,0,0
0:2:54.260,309.85,39.4518,0,0.000885,0,0
0:2:55.370,311.611,39.6724,0,0.000885,0,0
0:2:56.464,314.365,40.0241,0,0.000885,0,0
0:2:57.570,316.304,40.2723,0,0.000885,0,0
0:2:58.668,318.177,40.5136,0,0.000885,0,0
0:2:59.760,320.526,40.8101,0,0.000885,0,0
0:3:0.862,322.518,41.0652,0,0.000885,0,0
0:3:1.959,324.511,41.3203,0,0.000885,0,0
0:3:3.057,326.86,41.6168,0,0.000885,0,0
0:3:4.151,329.031,41.8925,0,0.000885,0,0
0:3:5.261,331.081,42.1545,0,0.000885,0,0
0:3:6.368,333.488,42.4579,0,0.000885,0,0
0:3:7.464,334.778,42.6234,0,0.000885,0,0
0:3:8.560,337.651,42.9888,0,0.000885,0,0
0:3:9.669,339.822,43.2646,0,0.000885,0,0
0:3:10.773,341.93,43.5335,0,0.000885,0,0
0:3:11.872,344.452,43.8576,0,0.000885,0,0
0:3:12.964,346.33,44.0989,0,0.000885,0,0
0:3:14.050,348.794,44.4091,0,0.000885,0,0
0:3:15.156,350.613,44.6436,0,0.000885,0,0
0:3:16.270,353.135,44.9607,0,0.000885,0,0
0:3:17.376,354.719,45.1676,0,0.000885,0,0
0:3:18.460,356.89,45.4433,0,0.000885,0,0
0:3:19.567,358.883,45.6916,0,0.000885,0,0
0:3:20.674,361.462,46.0225,0,0.000885,0,0
0:3:21.759,363.749,46.3121,0,0.000885,0,0
0:3:22.865,366.04,46.6086,0,0.000885,0,0
0:3:23.963,368.033,46.8568,0,0.000885,0,0
0:3:25.072,369.79,47.0843,0,0.000885,0,0
0:3:26.172,372.196,47.3877,0,0.000885,0,0
0:3:27.278,374.834,47.7255,0,0.000885,0,0
0:3:28.372,376.186,47.8979,0,0.000885,0,0
0:3:29.465,378.588,48.2012,0,0.000885,0,0
0:3:30.573,381.11,48.5253,0,0.000885,0,0
0:3:31.676,383.165,48.7873,0,0.000885,0,0
0:3:32.773,384.98,49.0148,0,0.000885,0,0
0:3:33.879,387.387,49.3251,0,0.000885,0,0
0:3:34.976,389.322,49.5733,0,0.000885,0,0
0:3:36.074,391.608,49.8629,0,0.000885,0,0
0:3:37.179,393.427,50.0904,0,0.000885,0,0
0:3:38.263,395.714,50.3869,0,0.000885,0,0
0:3:39.372,398.414,50.7247,0,0.000885,0,0
0:3:40.478,399.94,50.9247,0,0.000885,0,0
0:3:41.573,402.577,51.2556,0,0.000885,0,0
0:3:42.666,404.397,51.49,0,0.000885,0,0
0:3:43.773,406.505,51.7589,0,0.000885,0,0
0:3:44.874,408.209,51.9727,0,0.000885,0,0
0:3:45.977,410.669,52.2898,0,0.000885,0,0
0:3:47.075,412.666,52.5449,0,0.000885,0,0
0:3:48.181,415.068,52.8483,0,0.000885,0,0
0:3:49.278,416.478,53.0276,0,0.000885,0,0
0:3:50.376,418.004,53.2206,0,0.000885,0,0
0:3:51.474,419.587,53.4206,0,0.000885,0,0
0:3:52.565,419.881,53.4619,0,0.000885,0,0
0:3:53.650,419.116,53.3654,0,0.000885,0,0
0:3:54.773,415.188,52.8621,0,0.000885,0,0
0:3:55.873,411.082,52.3381,0,0.000885,0,0
0:3:56.966,412.252,52.4898,0,0.000885,0,0
0:3:58.052,417.003,53.0965,0,0.000885,0,0
0:3:59.166,422.928,53.8481,0,0.000885,0,0
0:4:0.265,429.734,54.7168,0,0.000885,0,0
0:4:1.371,437.122,55.6545,0,0.000885,0,0
0:4:2.466,443.457,56.4612,0,0.000885,0,0
0:4:3.565,449.439,57.2265,0,0.000885,0,0
0:4:4.683,453.136,57.6953,0,0.000885,0,0
0:4:5.790,454.542,57.8746,0,0.000885,0,0
0:4:6.884,455.889,58.047,0,0.000885,0,0
0:4:7.976,456.303,58.0952,0,0.000885,0,0
0:4:9.082,457.473,58.2469,0,0.000885,0,0
0:4:10.184,459.292,58.4813,0,0.000885,0,0
0:4:11.280,460.934,58.6882,0,0.000885,0,0
0:4:12.377,462.637,58.9019,0,0.000885,0,0
0:4:13.475,465.217,59.2329,0,0.000885,0,0
0:4:14.568,467.268,59.4949,0,0.000885,0,0
0:4:15.672,469.323,59.7569,0,0.000885,0,0
0:4:16.771,471.489,60.0327,0,0.000885,0,0
0:4:17.879,473.602,60.3015,0,0.000885,0,0
0:4:18.963,475.421,60.5291,0,0.000885,0,0
0:4:20.061,476.947,60.729,0,0.000885,0,0
0:4:21.166,479.643,61.0669,0,0.000885,0,0
0:4:22.273,482.107,61.384,0,0.000885,0,0
0:4:23.368,484.394,61.6736,0,0.000885,0,0
0:4:24.458,486.858,61.9908,0,0.000885,0,0
0:4:25.563,488.263,62.17,0,0.000885,0,0
0:4:26.652,490.434,62.4458,0,0.000885,0,0
0:4:27.739,492.489,62.7078,0,0.000885,0,0
0:4:28.825,494.718,62.9905,0,0.000885,0,0
0:4:29.921,496.475,63.2111,0,0.000885,0,0
0:4:31.021,495.363,63.0732,0,0.000885,0,0
0:4:32.104,496.653,63.2387,0,0.000885,0,0
0:4:33.187,467.326,59.5018,0,0.000885,0,0
0:4:34.280,468.033,59.5914,0,0.000885,0,0
0:4:35.379,367.561,46.8016,0,0.000885,0,0
0:4:36.480,362.81,46.1949,0,0.000885,0,0
0:4:37.584,362.579,46.1673,0,0.000885,0,0
0:4:38.467,359.292,45.7467,0,0.000885,0,0