File: DataFile2021-06-07_050159.csv
Test ID:,Date Tested:,Time:,Test Type:,Diameter Avg. (mm):,Cyl. Corr. Factor:,Height (mm):,Age (days):,Weight (kN):,Break Type:,Ramp Rate (MPa/s):,Load at Break (kN):,Stress at Break (MPa):
12,6/7/2021,05:01,Cylinder,100,1,200,0,3.6,3,0.25,683.12,86.98
Sample Time,Load (kN),Stress (MPa),Long. Strain,Trans. Strain,Chan1 Deflection (mm),Chan2 Deflection (mm)
0:0:13.259,5.21776,0.661897,0,0.000885,0,0
0:0:14.779,9.03434,1.15142,0,0.000885,0,0
0:0:16.280,10.3243,1.3169,0,0.000885,0,0
0:0:17.771,12.9621,1.64785,0,0.000885,0,0
0:0:19.277,17.0678,2.17185,0,0.000885,0,0
0:0:20.780,20.3506,2.59243,0,0.000885,0,0
0:0:22.273,23.1663,2.95096,0,0.000885,0,0
0:0:23.768,26.2178,3.33706,0,0.000885,0,0
0:0:25.284,28.5042,3.62664,0,0.000885,0,0
0:0:26.778,32.0806,4.0817,0,0.000885,0,0
0:0:28.267,34.8385,4.43333,0,0.000885,0,0
0:0:29.781,37.89,4.82633,0,0.000885,0,0
0:0:31.281,40.7012,5.18486,0,0.000885,0,0
0:0:32.782,43.3435,5.51581,0,0.000885,0,0
0:0:34.284,46.2748,5.89502,0,0.000885,0,0
0:0:35.790,49.442,6.29491,0,0.000885,0,0
0:0:37.282,52.3734,6.66723,0,0.000885,0,0
0:0:38.776,55.0156,7.00507,0,0.000885,0,0
0:0:40.292,58.2406,7.41876,0,0.000885,0,0
0:0:41.784,61.2298,7.79797,0,0.000885,0,0
0:0:43.274,64.2234,8.17718,0,0.000885,0,0
0:0:44.789,66.7456,8.50124,0,0.000885,0,0
0:0:46.284,70.144,8.92871,0,0.000885,0,0
0:0:47.778,72.8441,9.27345,0,0.000885,0,0
0:0:49.294,75.7176,9.63887,0,0.000885,0,0
0:0:50.799,78.7068,10.025,0,0.000885,0,0
0:0:52.291,82.2877,10.48,0,0.000885,0,0
0:0:53.782,85.219,10.8523,0,0.000885,0,0
0:0:55.300,87.7412,11.1695,0,0.000885,0,0
0:0:56.791,90.9083,11.5763,0,0.000885,0,0
0:0:58.282,93.724,11.9348,0,0.000885,0,0
0:0:59.799,96.7755,12.3209,0,0.000885,0,0
0:1:1.290,99.1197,12.6174,0,0.000885,0,0
0:1:2.784,102.171,13.0104,0,0.000885,0,0
0:1:4.291,105.338,13.4103,0,0.000885,0,0
0:1:5.797,108.443,13.8102,0,0.000885,0,0
0:1:7.290,111.201,14.1618,0,0.000885,0,0
0:1:8.784,114.017,14.5204,0,0.000885,0,0
0:1:10.301,117.184,14.9203,0,0.000885,0,0
0:1:11.792,119.942,15.2719,0,0.000885,0,0
0:1:13.284,123.46,15.72,0,0.000885,0,0
0:1:14.797,126.685,16.1268,0,0.000885,0,0
0:1:16.296,129.03,16.4302,0,0.000885,0,0
0:1:17.788,131.672,16.768,0,0.000885,0,0
0:1:19.298,134.897,17.1748,0,0.000885,0,0
0:1:20.798,138.122,17.5885,0,0.000885,0,0
0:1:22.287,140.466,17.885,0,0.000885,0,0
0:1:23.789,144.047,18.3401,0,0.000885,0,0
0:1:25.300,146.155,18.6089,0,0.000885,0,0
0:1:26.791,149.852,19.0778,0,0.000885,0,0
0:1:28.285,152.725,19.4432,0,0.000885,0,0
0:1:29.795,155.777,19.8362,0,0.000885,0,0
0:1:31.295,158.415,20.1672,0,0.000885,0,0
0:1:32.788,161.582,20.574,0,0.000885,0,0
0:1:34.293,163.868,20.8635,0,0.000885,0,0
0:1:35.800,166.862,21.2427,0,0.000885,0,0
0:1:37.291,169.971,21.6426,0,0.000885,0,0
0:1:38.782,173.018,22.0287,0,0.000885,0,0
0:1:40.298,176.305,22.4493,0,0.000885,0,0
0:1:41.790,178.472,22.7251,0,0.000885,0,0
0:1:43.282,181.874,23.1595,0,0.000885,0,0
0:1:44.800,184.926,23.5456,0,0.000885,0,0
0:1:46.292,188.093,23.9455,0,0.000885,0,0
0:1:47.784,190.322,24.2351,0,0.000885,0,0
0:1:49.288,193.489,24.635,0,0.000885,0,0
0:1:50.782,196.598,25.0349,0,0.000885,0,0
0:1:52.283,199.645,25.421,0,0.000885,0,0
0:1:53.785,202.87,25.8278,0,0.000885,0,0
0:1:55.291,205.099,26.1173,0,0.000885,0,0
0:1:56.790,208.15,26.5034,0,0.000885,0,0
0:1:58.291,211.726,26.9585,0,0.000885,0,0
0:1:59.789,213.839,27.2274,0,0.000885,0,0
0:2:1.286,217.3,27.6687,0,0.000885,0,0
0:2:2.777,220.352,28.0548,0,0.000885,0,0
0:2:4.276,223.283,28.4271,0,0.000885,0,0
0:2:5.787,226.686,28.8615,0,0.000885,0,0
0:2:7.289,228.736,29.1235,0,0.000885,0,0
0:2:8.786,232.082,29.5509,0,0.000885,0,0
0:2:10.289,234.955,29.9164,0,0.000885,0,0
0:2:11.789,237.593,30.2542,0,0.000885,0,0
0:2:13.290,241.232,30.7161,0,0.000885,0,0
0:2:14.799,243.398,30.9919,0,0.000885,0,0
0:2:16.286,246.449,31.378,0,0.000885,0,0
0:2:17.786,249.852,31.8124,0,0.000885,0,0
0:2:19.298,253.019,32.2123,0,0.000885,0,0
0:2:20.792,255.541,32.5364,0,0.000885,0,0
0:2:22.285,258.473,32.9087,0,0.000885,0,0
0:2:23.779,261.053,33.2396,0,0.000885,0,0
0:2:25.292,264.162,33.6326,0,0.000885,0,0
0:2:26.786,266.858,33.9774,0,0.000885,0,0
0:2:28.286,269.794,34.3497,0,0.000885,0,0
0:2:29.795,272.903,34.7496,0,0.000885,0,0
0:2:31.293,276.243,35.1702,0,0.000885,0,0
0:2:32.782,279.237,35.5563,0,0.000885,0,0
0:2:34.293,281.817,35.8803,0,0.000885,0,0
0:2:35.789,285.1,36.3009,0,0.000885,0,0
0:2:37.290,287.858,36.6525,0,0.000885,0,0
0:2:38.793,290.673,37.0111,0,0.000885,0,0
0:2:40.289,294.072,37.4454,0,0.000885,0,0
0:2:41.790,296.945,37.8108,0,0.000885,0,0
0:2:43.290,299.468,38.128,0,0.000885,0,0
0:2:44.791,302.341,38.4934,0,0.000885,0,0
0:2:46.287,305.508,38.9002,0,0.000885,0,0
0:2:47.789,307.857,39.1967,0,0.000885,0,0
0:2:49.301,311.491,39.6586,0,0.000885,0,0
0:2:50.797,315.072,40.1137,0,0.000885,0,0
0:2:52.289,317.594,40.4378,0,0.000885,0,0
0:2:53.797,320.583,40.817,0,0.000885,0,0
0:2:55.302,323.283,41.1617,0,0.000885,0,0
0:2:56.793,326.388,41.5547,0,0.000885,0,0
0:2:58.293,328.853,41.8719,0,0.000885,0,0
0:2:59.793,332.198,42.2993,0,0.000885,0,0
0:3:1.293,335.245,42.6854,0,0.000885,0,0
0:3:2.783,337.593,42.9819,0,0.000885,0,0
0:3:4.296,340.703,43.3818,0,0.000885,0,0
0:3:5.794,343.985,43.7955,0,0.000885,0,0
0:3:7.296,346.45,44.1127,0,0.000885,0,0
0:3:8.795,349.733,44.5263,0,0.000885,0,0
0:3:10.292,352.957,44.94,0,0.000885,0,0
0:3:11.795,356.009,45.3261,0,0.000885,0,0
0:3:13.284,358.998,45.7122,0,0.000885,0,0
0:3:14.799,360.995,45.9605,0,0.000885,0,0
0:3:16.296,364.514,46.4086,0,0.000885,0,0
0:3:17.797,367.33,46.7671,0,0.000885,0,0
0:3:19.300,370.377,47.1601,0,0.000885,0,0
0:3:20.793,372.899,47.4773,0,0.000885,0,0
0:3:22.305,375.772,47.8427,0,0.000885,0,0
0:3:23.795,379.117,48.2702,0,0.000885,0,0
0:3:25.300,382.752,48.7321,0,0.000885,0,0
0:3:26.792,385.1,49.0355,0,0.000885,0,0
0:3:28.292,388.147,49.4216,0,0.000885,0,0
0:3:29.800,391.199,49.8077,0,0.000885,0,0
0:3:31.292,393.899,50.1525,0,0.000885,0,0
0:3:32.797,397.124,50.5661,0,0.000885,0,0
0:3:34.303,399.82,50.904,0,0.000885,0,0
0:3:35.797,402.462,51.2418,0,0.000885,0,0
0:3:37.298,406.096,51.7038,0,0.000885,0,0
0:3:38.799,408.56,52.0209,0,0.000885,0,0
0:3:40.304,411.434,52.3864,0,0.000885,0,0
0:3:41.792,414.423,52.7656,0,0.000885,0,0
0:3:43.294,417.532,53.1586,0,0.000885,0,0
0:3:44.800,420.232,53.5033,0,0.000885,0,0
0:3:46.302,423.457,53.917,0,0.000885,0,0
0:3:47.793,426.389,54.2893,0,0.000885,0,0
0:3:49.303,429.32,54.6616,0,0.000885,0,0
0:3:50.796,432.314,55.0408,0,0.000885,0,0
0:3:52.297,435.009,55.3856,0,0.000885,0,0
0:3:53.799,438.003,55.7648,0,0.000885,0,0
0:3:55.303,440.934,56.144,0,0.000885,0,0
0:3:56.791,444.337,56.5715,0,0.000885,0,0
0:3:58.296,447.153,56.93,0,0.000885,0,0
0:3:59.804,450.787,57.3989,0,0.000885,0,0
0:4:1.301,452.549,57.6195,0,0.000885,0,0
0:4:2.802,455.889,58.047,0,0.000885,0,0
0:4:4.305,458.763,58.4124,0,0.000885,0,0
0:4:5.800,461.579,58.7709,0,0.000885,0,0
0:4:7.299,464.688,59.1639,0,0.000885,0,0
0:4:8.801,467.561,59.5293,0,0.000885,0,0
0:4:10.297,470.377,59.8879,0,0.000885,0,0
0:4:11.797,473.366,60.274,0,0.000885,0,0
0:4:13.299,476.36,60.6532,0,0.000885,0,0
0:4:14.804,479.176,61.0117,0,0.000885,0,0
0:4:16.297,482.049,61.3771,0,0.000885,0,0
0:4:17.799,485.51,61.8184,0,0.000885,0,0
0:4:19.307,488.09,62.1424,0,0.000885,0,0
0:4:20.799,490.848,62.4941,0,0.000885,0,0
0:4:22.299,494.54,62.9698,0,0.000885,0,0
0:4:23.791,497.12,63.2939,0,0.000885,0,0
0:4:25.308,500.056,63.6662,0,0.000885,0,0
0:4:26.793,502.578,63.9902,0,0.000885,0,0
0:4:28.298,506.27,64.4591,0,0.000885,0,0
0:4:29.805,508.676,64.7693,0,0.000885,0,0
0:4:31.302,511.608,65.1417,0,0.000885,0,0
0:4:32.802,515.011,65.576,0,0.000885,0,0
0:4:34.312,517.533,65.8932,0,0.000885,0,0
0:4:35.800,520.055,66.2172,0,0.000885,0,0
0:4:37.301,523.631,66.6723,0,0.000885,0,0
0:4:38.806,526.741,67.0653,0,0.000885,0,0
0:4:40.310,529.085,67.3687,0,0.000885,0,0
0:4:41.804,532.666,67.8237,0,0.000885,0,0
0:4:43.306,535.068,68.1271,0,0.000885,0,0
0:4:44.805,538.119,68.5132,0,0.000885,0,0
0:4:46.304,541.166,68.9062,0,0.000885,0,0
0:4:47.789,544.511,69.3268,0,0.000885,0,0
0:4:49.288,546.855,69.6302,0,0.000885,0,0
0:4:50.786,549.849,70.0094,0,0.000885,0,0
0:4:52.300,553.719,70.4989,0,0.000885,0,0
0:4:53.805,555.712,70.754,0,0.000885,0,0
0:4:55.307,558.821,71.1539,0,0.000885,0,0
0:4:56.802,561.873,71.54,0,0.000885,0,0
0:4:58.304,564.982,71.933,0,0.000885,0,0
0:4:59.804,567.504,72.2571,0,0.000885,0,0
0:5:1.301,571.196,72.7259,0,0.000885,0,0
0:5:2.802,573.367,73.0017,0,0.000885,0,0
0:5:4.309,576.183,73.3602,0,0.000885,0,0
0:5:5.806,579.408,73.7739,0,0.000885,0,0
0:5:7.306,582.575,74.1738,0,0.000885,0,0
0:5:8.806,585.506,74.5461,0,0.000885,0,0
0:5:10.305,588.442,74.9253,0,0.000885,0,0
0:5:11.799,591.551,75.3183,0,0.000885,0,0
0:5:13.310,594.073,75.6424,0,0.000885,0,0
0:5:14.819,597.125,76.0285,0,0.000885,0,0
0:5:16.315,600.003,76.3939,0,0.000885,0,0
0:5:17.798,602.645,76.7318,0,0.000885,0,0
0:5:19.308,605.874,77.1454,0,0.000885,0,0
0:5:20.810,608.632,77.4902,0,0.000885,0,0
0:5:22.308,612.213,77.9521,0,0.000885,0,0
0:5:23.817,615.149,78.3244,0,0.000885,0,0
0:5:25.321,617.907,78.6761,0,0.000885,0,0
0:5:26.809,621.136,79.0829,0,0.000885,0,0
0:5:28.297,623.894,79.4345,0,0.000885,0,0
0:5:29.812,626.768,79.7999,0,0.000885,0,0
0:5:31.313,629.588,80.1584,0,0.000885,0,0
0:5:32.812,632.168,80.4894,0,0.000885,0,0
0:5:34.320,635.691,80.9376,0,0.000885,0,0
0:5:35.823,638.333,81.2754,0,0.000885,0,0
0:5:37.312,641.678,81.7029,0,0.000885,0,0
0:5:38.798,644.556,82.0683,0,0.000885,0,0
0:5:40.312,647.021,82.3786,0,0.000885,0,0
0:5:41.802,650.601,82.8405,0,0.000885,0,0
0:5:43.312,652.834,83.1232,0,0.000885,0,0
0:5:44.820,656.353,83.5714,0,0.000885,0,0
0:5:46.313,656.122,83.5369,0,0.000885,0,0
0:5:47.812,660.463,84.0954,0,0.000885,0,0
0:5:49.318,665.57,84.7435,0,0.000885,0,0
0:5:50.815,668.27,85.0882,0,0.000885,0,0
0:5:52.301,670.089,85.3157,0,0.000885,0,0
0:5:53.806,674.199,85.8397,0,0.000885,0,0
0:5:55.316,676.663,86.1569,0,0.000885,0,0
0:5:56.800,677.077,86.2052,0,0.000885,0,0
0:5:58.300,680.947,86.7016,0,0.000885,0,0
0:5:59.815,621.368,79.1173,0,0.000885,0,0
0:6:1.304,582.517,74.1669,0,0.000885,0,0
0:6:2.801,572.544,72.8983,0,0.000885,0,0
0:6:4.309,538.293,68.5408,0,0.000885,0,0
0:6:4.921,499.411,63.5835,0,0.000885,0,0