File: DataFile2021-07-17_044857.csv
Test ID:,Date Tested:,Time:,Test Type:,Diameter Avg. (mm):,Cyl. Corr. Factor:,Height (mm):,Age (days):,Weight (kN):,Break Type:,Ramp Rate (MPa/s):,Load at Break (kN):,Stress at Break (MPa):
12,7/17/2021,04:48,Cylinder,100,1,200,0,3.6,3,0.25,1282.38,163.27
Sample Time,Load (kN),Stress (MPa),Long. Strain,Trans. Strain,Chan1 Deflection (mm),Chan2 Deflection (mm)
0:0:6.674,5.15994,0.655002,0,0.000885,0,0
0:0:9.489,10.1464,1.28932,0,0.000885,0,0
0:0:12.281,15.6577,1.99258,0,0.000885,0,0
0:0:15.089,20.9956,2.67517,0,0.000885,0,0
0:0:17.898,27.8014,3.53701,0,0.000885,0,0
0:0:20.695,32.6677,4.15754,0,0.000885,0,0
0:0:23.500,37.89,4.82633,0,0.000885,0,0
0:0:26.292,43.4013,5.5227,0,0.000885,0,0
0:0:29.110,49.0906,6.25354,0,0.000885,0,0
0:0:31.900,54.8377,6.98439,0,0.000885,0,0
0:0:34.705,60.1177,7.65318,0,0.000885,0,0
0:0:37.504,65.5712,8.34955,0,0.000885,0,0
0:0:40.304,71.0248,9.04592,0,0.000885,0,0
0:0:43.108,76.6562,9.76298,0,0.000885,0,0
0:0:45.900,81.9941,10.4387,0,0.000885,0,0
0:0:48.708,87.799,11.1764,0,0.000885,0,0
0:0:51.495,92.7855,11.8107,0,0.000885,0,0
0:0:54.302,98.4747,12.5416,0,0.000885,0,0
0:0:57.099,104.337,13.2862,0,0.000885,0,0
0:0:59.904,109.733,13.9688,0,0.000885,0,0
0:1:2.704,114.898,14.6307,0,0.000885,0,0
0:1:5.504,120.76,15.3753,0,0.000885,0,0
0:1:8.315,126.685,16.1268,0,0.000885,0,0
0:1:11.102,131.494,16.7405,0,0.000885,0,0
0:1:13.915,137.299,17.4851,0,0.000885,0,0
0:1:16.705,142.872,18.1884,0,0.000885,0,0
0:1:19.513,148.21,18.871,0,0.000885,0,0
0:1:22.303,153.077,19.4915,0,0.000885,0,0
0:1:25.109,158.766,20.2154,0,0.000885,0,0
0:1:27.916,165.042,21.0152,0,0.000885,0,0
0:1:30.706,169.851,21.6289,0,0.000885,0,0
0:1:33.514,175.367,22.3252,0,0.000885,0,0
0:1:36.300,181.287,23.0836,0,0.000885,0,0
0:1:39.111,186.389,23.7318,0,0.000885,0,0
0:1:41.898,191.669,24.4074,0,0.000885,0,0
0:1:44.702,198.062,25.221,0,0.000885,0,0
0:1:47.487,202.932,25.8347,0,0.000885,0,0
0:1:50.274,208.853,26.5931,0,0.000885,0,0
0:1:53.059,213.724,27.2136,0,0.000885,0,0
0:1:55.827,219.177,27.9031,0,0.000885,0,0
0:1:58.622,225.511,28.7098,0,0.000885,0,0
0:2:1.395,230.204,29.3096,0,0.000885,0,0
0:2:4.195,235.658,30.006,0,0.000885,0,0
0:2:6.980,241.289,30.723,0,0.000885,0,0
0:2:9.788,247.036,31.4539,0,0.000885,0,0
0:2:12.606,252.606,32.164,0,0.000885,0,0
0:2:15.406,257.77,32.819,0,0.000885,0,0
0:2:18.209,263.046,33.4947,0,0.000885,0,0
0:2:20.995,268.913,34.2394,0,0.000885,0,0
0:2:23.785,274.131,34.9013,0,0.000885,0,0
0:2:26.568,279.237,35.5563,0,0.000885,0,0
0:2:29.359,285.393,36.3354,0,0.000885,0,0
0:2:32.127,291.198,37.08,0,0.000885,0,0
0:2:34.912,296.185,37.7143,0,0.000885,0,0
0:2:37.709,301.638,38.4038,0,0.000885,0,0
0:2:40.496,306.74,39.0588,0,0.000885,0,0
0:2:43.311,312.43,39.7827,0,0.000885,0,0
0:2:46.099,318.177,40.5136,0,0.000885,0,0
0:2:48.904,323.283,41.1617,0,0.000885,0,0
0:2:51.685,328.737,41.8581,0,0.000885,0,0
0:2:54.488,335.071,42.6648,0,0.000885,0,0
0:2:57.256,339.88,43.2715,0,0.000885,0,0
0:3:0.043,345.863,44.0368,0,0.000885,0,0
0:3:2.831,350.787,44.6642,0,0.000885,0,0
0:3:5.610,356.245,45.3606,0,0.000885,0,0
0:3:8.411,362.107,46.1052,0,0.000885,0,0
0:3:11.188,367.036,46.7327,0,0.000885,0,0
0:3:13.983,372.663,47.4497,0,0.000885,0,0
0:3:16.751,377.827,48.1047,0,0.000885,0,0
0:3:19.538,384.104,48.9045,0,0.000885,0,0
0:3:22.314,389.264,49.5595,0,0.000885,0,0
0:3:25.093,394.482,50.2283,0,0.000885,0,0
0:3:27.920,400.994,51.0557,0,0.000885,0,0
0:3:30.705,405.629,51.6486,0,0.000885,0,0
0:3:33.508,411.025,52.3312,0,0.000885,0,0
0:3:36.310,417.181,53.1172,0,0.000885,0,0
0:3:39.109,422.399,53.7791,0,0.000885,0,0
0:3:41.902,427.505,54.4341,0,0.000885,0,0
0:3:44.700,432.959,55.1236,0,0.000885,0,0
0:3:47.496,438.528,55.8337,0,0.000885,0,0
0:3:50.289,444.102,56.5439,0,0.000885,0,0
0:3:53.082,449.319,57.2127,0,0.000885,0,0
0:3:55.844,455.071,57.9435,0,0.000885,0,0
0:3:58.635,460.64,58.6537,0,0.000885,0,0
0:4:1.413,466.387,59.3845,0,0.000885,0,0
0:4:4.217,470.907,59.9568,0,0.000885,0,0
0:4:7.015,476.827,60.7083,0,0.000885,0,0
0:4:9.801,482.343,61.4116,0,0.000885,0,0
0:4:12.606,488.032,62.1356,0,0.000885,0,0
0:4:15.406,493.192,62.7974,0,0.000885,0,0
0:4:18.212,499.411,63.5835,0,0.000885,0,0
0:4:20.971,503.868,64.1557,0,0.000885,0,0
0:4:23.769,510.082,64.9486,0,0.000885,0,0
0:4:26.537,515.771,65.6726,0,0.000885,0,0
0:4:29.323,521.167,66.3551,0,0.000885,0,0
0:4:32.121,526.269,67.0101,0,0.000885,0,0
0:4:34.917,531.491,67.672,0,0.000885,0,0
0:4:37.720,537.296,68.4098,0,0.000885,0,0
0:4:40.496,542.928,69.1268,0,0.000885,0,0
0:4:43.280,548.145,69.7956,0,0.000885,0,0
0:4:46.042,553.603,70.4851,0,0.000885,0,0
0:4:48.832,558.879,71.1608,0,0.000885,0,0
0:4:51.601,564.51,71.8778,0,0.000885,0,0
0:4:54.411,570.142,72.5949,0,0.000885,0,0
0:4:57.207,575.302,73.2499,0,0.000885,0,0
0:5:0.025,581.463,74.0359,0,0.000885,0,0
0:5:2.825,586.858,74.7185,0,0.000885,0,0
0:5:5.624,592.138,75.3942,0,0.000885,0,0
0:5:8.430,597.481,76.0768,0,0.000885,0,0
0:5:11.218,603.352,76.8214,0,0.000885,0,0
0:5:14.028,608.517,77.4764,0,0.000885,0,0
0:5:16.813,614.095,78.1865,0,0.000885,0,0
0:5:19.611,619.789,78.9105,0,0.000885,0,0
0:5:22.420,624.895,79.5655,0,0.000885,0,0
0:5:25.207,630.237,80.2412,0,0.000885,0,0
0:5:28.025,636.162,80.9996,0,0.000885,0,0
0:5:30.814,641.389,81.6615,0,0.000885,0,0
0:5:33.617,646.496,82.3165,0,0.000885,0,0
0:5:36.424,652.069,83.0267,0,0.000885,0,0
0:5:39.225,657.705,83.7437,0,0.000885,0,0
0:5:42.015,663.225,84.447,0,0.000885,0,0
0:5:44.808,669.271,85.2123,0,0.000885,0,0
0:5:47.630,674.377,85.8673,0,0.000885,0,0
0:5:50.422,679.662,86.5361,0,0.000885,0,0
0:5:53.232,685.587,87.2945,0,0.000885,0,0
0:5:56.014,690.871,87.9633,0,0.000885,0,0
0:5:58.827,696.329,88.6597,0,0.000885,0,0
0:6:1.620,701.965,89.3767,0,0.000885,0,0
0:6:4.420,707.485,90.08,0,0.000885,0,0
0:6:7.214,712.885,90.7695,0,0.000885,0,0
0:6:10.016,718.165,91.4383,0,0.000885,0,0
0:6:12.822,724.037,92.1898,0,0.000885,0,0
0:6:15.600,730.376,92.9965,0,0.000885,0,0
0:6:18.404,734.486,93.5205,0,0.000885,0,0
0:6:21.181,740.531,94.2858,0,0.000885,0,0
0:6:23.989,745.58,94.927,0,0.000885,0,0
0:6:26.782,751.389,95.6717,0,0.000885,0,0
0:6:29.572,756.731,96.3473,0,0.000885,0,0
0:6:32.371,761.838,97.0023,0,0.000885,0,0
0:6:35.154,767.652,97.7401,0,0.000885,0,0
0:6:37.963,773.577,98.4985,0,0.000885,0,0
0:6:40.743,778.452,99.1121,0,0.000885,0,0
0:6:43.549,784.319,99.8637,0,0.000885,0,0
0:6:46.330,789.662,100.546,0,0.000885,0,0
0:6:49.133,795.298,101.263,0,0.000885,0,0
0:6:51.924,800.756,101.953,0,0.000885,0,0
0:6:54.730,806.921,102.739,0,0.000885,0,0
0:6:57.550,811.907,103.373,0,0.000885,0,0
0:7:0.338,817.307,104.063,0,0.000885,0,0
0:7:3.141,822.356,104.704,0,0.000885,0,0
0:7:5.934,828.286,105.462,0,0.000885,0,0
0:7:8.738,833.921,106.179,0,0.000885,0,0
0:7:11.519,839.322,106.869,0,0.000885,0,0
0:7:14.321,844.664,107.544,0,0.000885,0,0
0:7:17.134,850.358,108.268,0,0.000885,0,0
0:7:19.935,855.758,108.958,0,0.000885,0,0
0:7:22.753,861.274,109.661,0,0.000885,0,0
0:7:25.531,866.736,110.357,0,0.000885,0,0
0:7:28.335,872.074,111.033,0,0.000885,0,0
0:7:31.115,877.71,111.75,0,0.000885,0,0
0:7:33.927,883.524,112.495,0,0.000885,0,0
0:7:36.741,888.63,113.143,0,0.000885,0,0
0:7:39.533,894.675,113.915,0,0.000885,0,0
0:7:42.351,899.666,114.549,0,0.000885,0,0
0:7:45.137,905.418,115.28,0,0.000885,0,0
0:7:47.944,910.346,115.908,0,0.000885,0,0
0:7:50.742,916.218,116.659,0,0.000885,0,0
0:7:53.552,921.618,117.342,0,0.000885,0,0
0:7:56.340,926.903,118.018,0,0.000885,0,0
0:7:59.141,932.77,118.762,0,0.000885,0,0
0:8:1.933,938.521,119.493,0,0.000885,0,0
0:8:4.733,943.922,120.183,0,0.000885,0,0
0:8:7.533,948.797,120.803,0,0.000885,0,0
0:8:10.319,954.548,121.534,0,0.000885,0,0
0:8:13.119,960.42,122.285,0,0.000885,0,0
0:8:15.905,965.527,122.934,0,0.000885,0,0
0:8:18.704,971.158,123.651,0,0.000885,0,0
0:8:21.486,976.678,124.354,0,0.000885,0,0
0:8:24.289,982.021,125.036,0,0.000885,0,0
0:8:27.089,987.536,125.74,0,0.000885,0,0
0:8:29.874,992.701,126.395,0,0.000885,0,0
0:8:32.678,998.572,127.139,0,0.000885,0,0
0:8:35.462,1003.97,127.829,0,0.000885,0,0
0:8:38.262,1009.61,128.546,0,0.000885,0,0
0:8:41.048,1015.24,129.263,0,0.000885,0,0
0:8:43.848,1020.17,129.89,0,0.000885,0,0
0:8:46.635,1025.69,130.594,0,0.000885,0,0
0:8:49.444,1031.62,131.352,0,0.000885,0,0
0:8:52.236,1036.79,132.007,0,0.000885,0,0
0:8:55.028,1042.95,132.793,0,0.000885,0,0
0:8:57.837,1047.88,133.42,0,0.000885,0,0
0:9:0.630,1053.87,134.186,0,0.000885,0,0
0:9:3.431,1058.62,134.786,0,0.000885,0,0
0:9:6.238,1064.55,135.544,0,0.000885,0,0
0:9:9.044,1070.42,136.289,0,0.000885,0,0
0:9:11.854,1075.76,136.971,0,0.000885,0,0
0:9:14.647,1081.51,137.702,0,0.000885,0,0
0:9:17.452,1086.56,138.343,0,0.000885,0,0
0:9:20.241,1092.02,139.04,0,0.000885,0,0
0:9:23.052,1097.6,139.75,0,0.000885,0,0
0:9:25.839,1099.77,140.026,0,0.000885,0,0
0:9:28.640,1110.86,141.439,0,0.000885,0,0
0:9:31.430,1113.98,141.839,0,0.000885,0,0
0:9:34.251,1118.96,142.473,0,0.000885,0,0
0:9:37.051,1125.19,143.266,0,0.000885,0,0
0:9:39.846,1130.53,143.942,0,0.000885,0,0
0:9:42.664,1135.99,144.638,0,0.000885,0,0
0:9:45.451,1141.97,145.404,0,0.000885,0,0
0:9:48.259,1147.32,146.079,0,0.000885,0,0
0:9:51.053,1152.25,146.707,0,0.000885,0,0
0:9:53.859,1157.88,147.424,0,0.000885,0,0
0:9:56.654,1163.52,148.141,0,0.000885,0,0
0:9:59.452,1168.86,148.823,0,0.000885,0,0
0:10:2.262,1174.5,149.54,0,0.000885,0,0
0:10:5.053,1180.78,150.34,0,0.000885,0,0
0:10:7.864,1185.47,150.94,0,0.000885,0,0
0:10:10.640,1190.64,151.595,0,0.000885,0,0
0:10:13.467,1196.8,152.381,0,0.000885,0,0
0:10:16.252,1202.03,153.05,0,0.000885,0,0
0:10:19.061,1207.78,153.781,0,0.000885,0,0
0:10:21.870,1212.53,154.387,0,0.000885,0,0
0:10:24.660,1218.4,155.132,0,0.000885,0,0
0:10:27.469,1223.8,155.822,0,0.000885,0,0
0:10:30.261,1229.14,156.497,0,0.000885,0,0
0:10:33.063,1235.19,157.269,0,0.000885,0,0
0:10:35.860,1240.59,157.959,0,0.000885,0,0
0:10:38.665,1246.46,158.704,0,0.000885,0,0
0:10:41.455,1251.16,159.303,0,0.000885,0,0
0:10:44.254,1257.26,160.082,0,0.000885,0,0
0:10:47.065,1262.31,160.724,0,0.000885,0,0
0:10:49.853,1268,161.448,0,0.000885,0,0
0:10:52.670,1273.23,162.11,0,0.000885,0,0
0:10:55.462,1278.51,162.785,0,0.000885,0,0
0:10:58.264,1260.37,160.475,0,0.000885,0,0
0:10:58.303,1260.37,160.475,0,0.000885,0,0