File: DataFile2021-06-29_063604.csv
Test ID:,Date Tested:,Time:,Test Type:,Diameter Avg. (mm):,Cyl. Corr. Factor:,Height (mm):,Age (days):,Weight (kN):,Break Type:,Ramp Rate (MPa/s):,Load at Break (kN):,Stress at Break (MPa):
12,6/29/2021,06:36,Cylinder,100,1,200,0,3.6,3,0.25,759.37,96.69
Sample Time,Load (kN),Stress (MPa),Long. Strain,Trans. Strain,Chan1 Deflection (mm),Chan2 Deflection (mm)
0:0:17.092,7.15719,0.910108,0,0.000885,0,0
0:0:18.777,12.1392,1.54443,0,0.000885,0,0
0:0:20.461,12.0814,1.53753,0,0.000885,0,0
0:0:22.147,13.9585,1.77885,0,0.000885,0,0
0:0:23.865,18.1799,2.31664,0,0.000885,0,0
0:0:25.556,22.5792,2.87511,0,0.000885,0,0
0:0:27.248,25.1591,3.20606,0,0.000885,0,0
0:0:28.966,28.3263,3.60596,0,0.000885,0,0
0:0:30.657,31.4934,4.01275,0,0.000885,0,0
0:0:32.349,35.5991,4.52986,0,0.000885,0,0
0:0:34.069,38.2992,4.87459,0,0.000885,0,0
0:0:35.760,41.582,5.29517,0,0.000885,0,0
0:0:37.457,45.2206,5.75712,0,0.000885,0,0
0:0:39.169,48.7392,6.20528,0,0.000885,0,0
0:0:40.861,51.7284,6.58449,0,0.000885,0,0
0:0:42.556,54.8955,6.99128,0,0.000885,0,0
0:0:44.268,58.7076,7.47392,0,0.000885,0,0
0:0:45.962,61.4655,7.82555,0,0.000885,0,0
0:0:47.655,65.1042,8.2875,0,0.000885,0,0
0:0:49.368,68.9163,8.77703,0,0.000885,0,0
0:0:51.060,71.7898,9.14245,0,0.000885,0,0
0:0:52.756,75.1305,9.56303,0,0.000885,0,0
0:0:54.466,78.2976,9.96982,0,0.000885,0,0
0:0:56.164,82.4611,10.5007,0,0.000885,0,0
0:0:57.868,85.6905,10.9075,0,0.000885,0,0
0:0:59.567,88.5641,11.2729,0,0.000885,0,0
0:1:1.260,92.0248,11.7142,0,0.000885,0,0
0:1:2.964,95.5434,12.1624,0,0.000885,0,0
0:1:4.664,98.3591,12.5209,0,0.000885,0,0
0:1:6.358,101.584,12.9346,0,0.000885,0,0
0:1:8.063,105.57,13.4448,0,0.000885,0,0
0:1:9.768,108.563,13.824,0,0.000885,0,0
0:1:11.456,111.846,14.2377,0,0.000885,0,0
0:1:13.168,115.422,14.6996,0,0.000885,0,0
0:1:14.866,118.065,15.0306,0,0.000885,0,0
0:1:16.556,121.819,15.5132,0,0.000885,0,0
0:1:18.266,125.631,15.9958,0,0.000885,0,0
0:1:19.967,128.798,16.3957,0,0.000885,0,0
0:1:21.655,131.494,16.7405,0,0.000885,0,0
0:1:23.364,135.426,17.2438,0,0.000885,0,0
0:1:25.067,138.531,17.6368,0,0.000885,0,0
0:1:26.756,142.17,18.0987,0,0.000885,0,0
0:1:28.465,145.043,18.4642,0,0.000885,0,0
0:1:30.166,148.384,18.8916,0,0.000885,0,0
0:1:31.855,152.374,19.4018,0,0.000885,0,0
0:1:33.568,155.012,19.7397,0,0.000885,0,0
0:1:35.264,158.824,20.2223,0,0.000885,0,0
0:1:36.956,161.991,20.6222,0,0.000885,0,0
0:1:38.666,164.864,20.9945,0,0.000885,0,0
0:1:40.358,167.858,21.3737,0,0.000885,0,0
0:1:42.061,171.848,21.8771,0,0.000885,0,0
0:1:43.773,175.66,22.3666,0,0.000885,0,0
0:1:45.466,178.356,22.7113,0,0.000885,0,0
0:1:47.159,182.226,23.2009,0,0.000885,0,0
0:1:48.873,185.571,23.6283,0,0.000885,0,0
0:1:50.561,188.444,23.9938,0,0.000885,0,0
0:1:52.263,192.021,24.4488,0,0.000885,0,0
0:1:53.971,195.539,24.897,0,0.000885,0,0
0:1:55.658,198.827,25.3175,0,0.000885,0,0
0:1:57.347,201.994,25.7174,0,0.000885,0,0
0:1:59.051,205.277,26.138,0,0.000885,0,0
0:2:0.737,208.679,26.5724,0,0.000885,0,0
0:2:2.441,212.198,27.0206,0,0.000885,0,0
0:2:4.143,215.187,27.3998,0,0.000885,0,0
0:2:5.860,218.123,27.7721,0,0.000885,0,0
0:2:7.561,222.344,28.3099,0,0.000885,0,0
0:2:9.265,225.218,28.6753,0,0.000885,0,0
0:2:10.940,228.794,29.1303,0,0.000885,0,0
0:2:12.632,231.904,29.5302,0,0.000885,0,0
0:2:14.323,235.186,29.9439,0,0.000885,0,0
0:2:16.004,238.589,30.3783,0,0.000885,0,0
0:2:17.695,242.17,30.8334,0,0.000885,0,0
0:2:19.391,245.337,31.2401,0,0.000885,0,0
0:2:21.070,248.442,31.6331,0,0.000885,0,0
0:2:22.763,251.494,32.0193,0,0.000885,0,0
0:2:24.457,255.07,32.4743,0,0.000885,0,0
0:2:26.161,258.588,32.9225,0,0.000885,0,0
0:2:27.851,262.285,33.3982,0,0.000885,0,0
0:2:29.564,265.216,33.7705,0,0.000885,0,0
0:2:31.250,268.504,34.1842,0,0.000885,0,0
0:2:32.963,271.786,34.6048,0,0.000885,0,0
0:2:34.660,275.305,35.0529,0,0.000885,0,0
0:2:36.345,278.708,35.4873,0,0.000885,0,0
0:2:38.041,282.342,35.9493,0,0.000885,0,0
0:2:39.740,285.509,36.3492,0,0.000885,0,0
0:2:41.428,288.445,36.7284,0,0.000885,0,0
0:2:43.122,292.137,37.1972,0,0.000885,0,0
0:2:44.811,295.304,37.5971,0,0.000885,0,0
0:2:46.490,298.062,37.9487,0,0.000885,0,0
0:2:48.184,301.758,38.4176,0,0.000885,0,0
0:2:49.875,305.508,38.9002,0,0.000885,0,0
0:2:51.565,308.444,39.2725,0,0.000885,0,0
0:2:53.265,311.669,39.6862,0,0.000885,0,0
0:2:54.953,315.245,40.1413,0,0.000885,0,0
0:2:56.668,318.764,40.5894,0,0.000885,0,0
0:2:58.368,321.993,40.9962,0,0.000885,0,0
0:3:0.057,325.161,41.403,0,0.000885,0,0
0:3:1.755,328.328,41.8029,0,0.000885,0,0
0:3:3.456,331.784,42.2442,0,0.000885,0,0
0:3:5.141,335.071,42.6648,0,0.000885,0,0
0:3:6.820,338.296,43.0715,0,0.000885,0,0
0:3:8.527,341.873,43.5266,0,0.000885,0,0
0:3:10.209,345.04,43.9334,0,0.000885,0,0
0:3:11.883,348.5,44.3747,0,0.000885,0,0
0:3:13.588,351.432,44.747,0,0.000885,0,0
0:3:15.270,354.425,45.1262,0,0.000885,0,0
0:3:16.967,358.473,45.6433,0,0.000885,0,0
0:3:18.668,361.347,46.0087,0,0.000885,0,0
0:3:20.358,364.865,46.4569,0,0.000885,0,0
0:3:22.040,368.033,46.8568,0,0.000885,0,0
0:3:23.757,371.787,47.3394,0,0.000885,0,0
0:3:25.448,375.421,47.8014,0,0.000885,0,0
0:3:27.129,378.179,48.153,0,0.000885,0,0
0:3:28.832,381.52,48.5736,0,0.000885,0,0
0:3:30.512,385.216,49.0493,0,0.000885,0,0
0:3:32.192,387.974,49.4009,0,0.000885,0,0
0:3:33.899,391.435,49.8422,0,0.000885,0,0
0:3:35.576,394.895,50.2766,0,0.000885,0,0
0:3:37.277,398.356,50.7178,0,0.000885,0,0
0:3:38.977,401.345,51.1039,0,0.000885,0,0
0:3:40.664,404.628,51.5176,0,0.000885,0,0
0:3:42.360,407.737,51.9175,0,0.000885,0,0
0:3:44.067,411.607,52.4071,0,0.000885,0,0
0:3:45.745,414.837,52.8207,0,0.000885,0,0
0:3:47.431,418.942,53.3378,0,0.000885,0,0
0:3:49.128,421.522,53.6688,0,0.000885,0,0
0:3:50.811,424.805,54.0894,0,0.000885,0,0
0:3:52.503,427.972,54.4893,0,0.000885,0,0
0:3:54.188,431.433,54.9305,0,0.000885,0,0
0:3:55.871,434.716,55.3511,0,0.000885,0,0
0:3:57.573,438.003,55.7648,0,0.000885,0,0
0:3:59.259,441.286,56.1854,0,0.000885,0,0
0:4:0.939,444.569,56.606,0,0.000885,0,0
0:4:2.629,448.029,57.0472,0,0.000885,0,0
0:4:4.323,451.139,57.4402,0,0.000885,0,0
0:4:6.001,454.893,57.916,0,0.000885,0,0
0:4:7.704,458.354,58.3572,0,0.000885,0,0
0:4:9.389,460.991,58.6951,0,0.000885,0,0
0:4:11.076,464.688,59.1639,0,0.000885,0,0
0:4:12.774,468.091,59.5983,0,0.000885,0,0
0:4:14.459,471.489,60.0327,0,0.000885,0,0
0:4:16.157,474.483,60.4119,0,0.000885,0,0
0:4:17.873,478.179,60.8807,0,0.000885,0,0
0:4:19.572,481.169,61.2668,0,0.000885,0,0
0:4:21.270,484.514,61.6874,0,0.000885,0,0
0:4:22.970,488.499,62.1976,0,0.000885,0,0
0:4:24.669,491.373,62.563,0,0.000885,0,0
0:4:26.359,494.66,62.9836,0,0.000885,0,0
0:4:28.080,497.827,63.3835,0,0.000885,0,0
0:4:29.772,501.226,63.8179,0,0.000885,0,0
0:4:31.472,504.628,64.2522,0,0.000885,0,0
0:4:33.172,507.796,64.6521,0,0.000885,0,0
0:4:34.854,511.434,65.121,0,0.000885,0,0
0:4:36.538,514.246,65.4726,0,0.000885,0,0
0:4:38.239,517.884,65.9415,0,0.000885,0,0
0:4:39.922,520.758,66.3069,0,0.000885,0,0
0:4:41.602,524.686,66.8033,0,0.000885,0,0
0:4:43.306,527.915,67.217,0,0.000885,0,0
0:4:44.983,530.846,67.5893,0,0.000885,0,0
0:4:46.660,534.365,68.0375,0,0.000885,0,0
0:4:48.361,537.941,68.4925,0,0.000885,0,0
0:4:50.066,541.051,68.8855,0,0.000885,0,0
0:4:51.779,544.453,69.3199,0,0.000885,0,0
0:4:53.480,547.856,69.7543,0,0.000885,0,0
0:4:55.167,550.846,70.1335,0,0.000885,0,0
0:4:56.868,553.777,70.5058,0,0.000885,0,0
0:4:58.579,557.709,71.0091,0,0.000885,0,0
0:5:0.268,561.228,71.4573,0,0.000885,0,0
0:5:1.969,564.626,71.8916,0,0.000885,0,0
0:5:3.681,568.087,72.3329,0,0.000885,0,0
0:5:5.368,571.548,72.7742,0,0.000885,0,0
0:5:7.068,574.248,73.112,0,0.000885,0,0
0:5:8.782,578.118,73.6084,0,0.000885,0,0
0:5:10.478,580.933,73.967,0,0.000885,0,0
0:5:12.180,584.567,74.4289,0,0.000885,0,0
0:5:13.873,587.735,74.8357,0,0.000885,0,0
0:5:15.571,591.08,75.2563,0,0.000885,0,0
0:5:17.267,594.136,75.6493,0,0.000885,0,0
0:5:18.981,598.304,76.1802,0,0.000885,0,0
0:5:20.682,600.884,76.5042,0,0.000885,0,0
0:5:22.389,604.642,76.9869,0,0.000885,0,0
0:5:24.083,608.165,77.435,0,0.000885,0,0
0:5:25.775,611.159,77.8142,0,0.000885,0,0
0:5:27.491,614.855,78.2831,0,0.000885,0,0
0:5:29.187,617.791,78.6623,0,0.000885,0,0
0:5:30.880,620.958,79.0622,0,0.000885,0,0
0:5:32.590,624.481,79.5103,0,0.000885,0,0
0:5:34.287,627.884,79.9447,0,0.000885,0,0
0:5:35.984,631.407,80.3929,0,0.000885,0,0
0:5:37.690,634.459,80.779,0,0.000885,0,0
0:5:39.388,637.924,81.2202,0,0.000885,0,0
0:5:41.085,641.62,81.696,0,0.000885,0,0
0:5:42.792,644.614,82.0752,0,0.000885,0,0
0:5:44.483,648.253,82.5371,0,0.000885,0,0
0:5:46.182,651.424,82.9439,0,0.000885,0,0
0:5:47.891,654.36,83.3162,0,0.000885,0,0
0:5:49.580,657.821,83.7575,0,0.000885,0,0
0:5:51.282,661.286,84.1988,0,0.000885,0,0
0:5:52.998,664.222,84.5711,0,0.000885,0,0
0:5:54.689,668.212,85.0813,0,0.000885,0,0
0:5:56.387,671.677,85.5226,0,0.000885,0,0
0:5:58.103,675.138,85.9638,0,0.000885,0,0
0:5:59.788,677.722,86.2879,0,0.000885,0,0
0:6:1.485,681.361,86.7567,0,0.000885,0,0
0:6:3.201,685.177,87.2394,0,0.000885,0,0
0:6:4.886,688.171,87.6186,0,0.000885,0,0
0:6:6.576,691.338,88.0254,0,0.000885,0,0
0:6:8.294,694.745,88.4597,0,0.000885,0,0
0:6:9.983,698.326,88.9148,0,0.000885,0,0
0:6:11.686,701.2,89.2802,0,0.000885,0,0
0:6:13.401,704.781,89.7353,0,0.000885,0,0
0:6:15.090,708.304,90.1834,0,0.000885,0,0
0:6:16.782,711.533,90.5971,0,0.000885,0,0
0:6:18.487,714.585,90.9832,0,0.000885,0,0
0:6:20.187,718.05,91.4245,0,0.000885,0,0
0:6:21.885,721.395,91.852,0,0.000885,0,0
0:6:23.592,724.624,92.2587,0,0.000885,0,0
0:6:25.291,728.436,92.7483,0,0.000885,0,0
0:6:26.988,731.43,93.1275,0,0.000885,0,0
0:6:28.698,734.779,93.555,0,0.000885,0,0
0:6:30.388,737.595,93.9135,0,0.000885,0,0
0:6:32.089,741.35,94.3892,0,0.000885,0,0
0:6:33.786,744.521,94.796,0,0.000885,0,0
0:6:35.484,748.28,95.2718,0,0.000885,0,0
0:6:37.192,750.918,95.6096,0,0.000885,0,0
0:6:38.890,754.383,96.0509,0,0.000885,0,0
0:6:40.585,757.612,96.4645,0,0.000885,0,0
0:6:42.293,758.435,96.568,0,0.000885,0,0
0:6:43.388,756.967,96.3818,0,0.000885,0,0