File: DataFile2021-07-03_073053.csv
Test ID:,Date Tested:,Time:,Test Type:,Diameter Avg. (mm):,Cyl. Corr. Factor:,Height (mm):,Age (days):,Weight (kN):,Break Type:,Ramp Rate (MPa/s):,Load at Break (kN):,Stress at Break (MPa):
12,7/3/2021,07:30,Cylinder,100,1,200,0,3.6,3,0.25,613.74,78.15
Sample Time,Load (kN),Stress (MPa),Long. Strain,Trans. Strain,Chan1 Deflection (mm),Chan2 Deflection (mm)
0:0:18.189,5.21776,0.661897,0,0.000885,0,0
0:0:19.600,10.6179,1.35137,0,0.000885,0,0
0:0:21.013,10.907,1.38585,0,0.000885,0,0
0:0:22.413,12.2015,1.55132,0,0.000885,0,0
0:0:23.820,16.0136,2.04085,0,0.000885,0,0
0:0:25.227,19.2964,2.45453,0,0.000885,0,0
0:0:26.622,22.1121,2.81306,0,0.000885,0,0
0:0:28.016,24.5764,3.13022,0,0.000885,0,0
0:0:29.424,27.6235,3.51633,0,0.000885,0,0
0:0:30.823,29.6207,3.77143,0,0.000885,0,0
0:0:32.218,33.1971,4.22649,0,0.000885,0,0
0:0:33.612,35.5991,4.52986,0,0.000885,0,0
0:0:35.027,38.2992,4.87459,0,0.000885,0,0
0:0:36.419,41.4085,5.27449,0,0.000885,0,0
0:0:37.813,43.7527,5.57096,0,0.000885,0,0
0:0:39.226,46.5684,5.92949,0,0.000885,0,0
0:0:40.633,49.7934,6.34318,0,0.000885,0,0
0:0:42.023,52.1999,6.64655,0,0.000885,0,0
0:0:43.420,54.7798,6.97749,0,0.000885,0,0
0:0:44.833,57.5377,7.32913,0,0.000885,0,0
0:0:46.224,59.704,7.60492,0,0.000885,0,0
0:0:47.621,63.227,8.05308,0,0.000885,0,0
0:0:49.023,65.6869,8.36334,0,0.000885,0,0
0:0:50.427,68.6227,8.73566,0,0.000885,0,0
0:0:51.820,71.3762,9.08729,0,0.000885,0,0
0:0:53.215,73.3734,9.3424,0,0.000885,0,0
0:0:54.634,76.8341,9.78366,0,0.000885,0,0
0:0:56.030,79.2362,10.087,0,0.000885,0,0
0:0:57.425,82.6391,10.5214,0,0.000885,0,0
0:0:58.819,84.3383,10.7351,0,0.000885,0,0
0:1:0.234,87.7412,11.1695,0,0.000885,0,0
0:1:1.624,91.1441,11.6039,0,0.000885,0,0
0:1:3.020,93.3726,11.8866,0,0.000885,0,0
0:1:4.429,95.7168,12.1899,0,0.000885,0,0
0:1:5.826,98.6482,12.5622,0,0.000885,0,0
0:1:7.220,101.464,12.9208,0,0.000885,0,0
0:1:8.615,104.458,13.3,0,0.000885,0,0
0:1:10.028,106.922,13.6103,0,0.000885,0,0
0:1:11.421,109.853,13.9895,0,0.000885,0,0
0:1:12.815,112.669,14.348,0,0.000885,0,0
0:1:14.230,115.307,14.6789,0,0.000885,0,0
0:1:15.636,118.007,15.0237,0,0.000885,0,0
0:1:17.029,120.467,15.3408,0,0.000885,0,0
0:1:18.422,123.403,15.7132,0,0.000885,0,0
0:1:19.836,126.276,16.0786,0,0.000885,0,0
0:1:21.233,129.381,16.4716,0,0.000885,0,0
0:1:22.626,131.903,16.7956,0,0.000885,0,0
0:1:24.026,134.661,17.1473,0,0.000885,0,0
0:1:25.434,137.01,17.4437,0,0.000885,0,0
0:1:26.829,140.115,17.8367,0,0.000885,0,0
0:1:28.218,142.93,18.1953,0,0.000885,0,0
0:1:29.632,145.746,18.5538,0,0.000885,0,0
0:1:31.030,148.326,18.8847,0,0.000885,0,0
0:1:32.420,150.732,19.195,0,0.000885,0,0
0:1:33.821,154.135,19.6225,0,0.000885,0,0
0:1:35.230,156.595,19.9396,0,0.000885,0,0
0:1:36.624,159.469,20.3051,0,0.000885,0,0
0:1:38.023,161.697,20.5877,0,0.000885,0,0
0:1:39.433,164.927,21.0014,0,0.000885,0,0
0:1:40.834,167.622,21.3393,0,0.000885,0,0
0:1:42.226,169.677,21.6013,0,0.000885,0,0
0:1:43.618,173.312,22.0701,0,0.000885,0,0
0:1:45.031,175.425,22.339,0,0.000885,0,0
0:1:46.428,178.062,22.67,0,0.000885,0,0
0:1:47.820,181.701,23.1319,0,0.000885,0,0
0:1:49.227,183.809,23.4008,0,0.000885,0,0
0:1:50.626,186.509,23.7455,0,0.000885,0,0
0:1:52.020,189.441,24.1179,0,0.000885,0,0
0:1:53.421,192.372,24.4971,0,0.000885,0,0
0:1:54.828,195.072,24.8349,0,0.000885,0,0
0:1:56.212,197.888,25.1934,0,0.000885,0,0
0:1:57.625,200.348,25.5106,0,0.000885,0,0
0:1:59.023,202.812,25.8209,0,0.000885,0,0
0:2:0.425,205.628,26.1794,0,0.000885,0,0
0:2:1.820,208.795,26.5862,0,0.000885,0,0
0:2:3.219,211.553,26.9378,0,0.000885,0,0
0:2:4.624,214.075,27.255,0,0.000885,0,0
0:2:6.007,216.713,27.5928,0,0.000885,0,0
0:2:7.410,219.471,27.9445,0,0.000885,0,0
0:2:8.809,222.58,28.3375,0,0.000885,0,0
0:2:10.219,225.16,28.6684,0,0.000885,0,0
0:2:11.624,228.207,29.0545,0,0.000885,0,0
0:2:13.024,230.378,29.3303,0,0.000885,0,0
0:2:14.421,233.371,29.7164,0,0.000885,0,0
0:2:15.814,236.419,30.1025,0,0.000885,0,0
0:2:17.219,238.825,30.4059,0,0.000885,0,0
0:2:18.614,241.405,30.7368,0,0.000885,0,0
0:2:20.021,244.808,31.1712,0,0.000885,0,0
0:2:21.429,247.036,31.4539,0,0.000885,0,0
0:2:22.807,249.91,31.8193,0,0.000885,0,0
0:2:24.217,252.784,32.1847,0,0.000885,0,0
0:2:25.616,255.364,32.5157,0,0.000885,0,0
0:2:27.023,257.943,32.8397,0,0.000885,0,0
0:2:28.423,260.759,33.1983,0,0.000885,0,0
0:2:29.826,264.046,33.6188,0,0.000885,0,0
0:2:31.223,266.275,33.9015,0,0.000885,0,0
0:2:32.623,269.206,34.2738,0,0.000885,0,0
0:2:34.022,271.551,34.5772,0,0.000885,0,0
0:2:35.423,274.953,35.0116,0,0.000885,0,0
0:2:36.827,277.943,35.3908,0,0.000885,0,0
0:2:38.229,280.291,35.6873,0,0.000885,0,0
0:2:39.632,282.929,36.0251,0,0.000885,0,0
0:2:41.026,285.687,36.3767,0,0.000885,0,0
0:2:42.427,288.267,36.7008,0,0.000885,0,0
0:2:43.829,291.198,37.08,0,0.000885,0,0
0:2:45.223,293.427,37.3627,0,0.000885,0,0
0:2:46.628,296.3,37.7281,0,0.000885,0,0
0:2:48.023,299.588,38.1418,0,0.000885,0,0
0:2:49.429,302.461,38.5072,0,0.000885,0,0
0:2:50.826,304.926,38.8244,0,0.000885,0,0
0:2:52.220,307.506,39.1553,0,0.000885,0,0
0:2:53.626,310.553,39.5414,0,0.000885,0,0
0:2:55.029,313.31,39.8931,0,0.000885,0,0
0:2:56.418,316.478,40.293,0,0.000885,0,0
0:2:57.825,318.47,40.5481,0,0.000885,0,0
0:2:59.227,321.228,40.8997,0,0.000885,0,0
0:3:0.624,324.338,41.2927,0,0.000885,0,0
0:3:2.027,326.86,41.6168,0,0.000885,0,0
0:3:3.411,329.555,41.9615,0,0.000885,0,0
0:3:4.816,332.723,42.3614,0,0.000885,0,0
0:3:6.217,335.187,42.6785,0,0.000885,0,0
0:3:7.619,337.767,43.0026,0,0.000885,0,0
0:3:9.019,341.228,43.4439,0,0.000885,0,0
0:3:10.413,343.047,43.6783,0,0.000885,0,0
0:3:11.812,346.098,44.0644,0,0.000885,0,0
0:3:13.216,349.203,44.4643,0,0.000885,0,0
0:3:14.619,351.903,44.809,0,0.000885,0,0
0:3:16.028,354.31,45.1124,0,0.000885,0,0
0:3:17.422,357.121,45.4709,0,0.000885,0,0
0:3:18.830,359.705,45.8019,0,0.000885,0,0
0:3:20.234,363.104,46.2293,0,0.000885,0,0
0:3:21.613,365.453,46.5327,0,0.000885,0,0
0:3:23.027,367.912,46.843,0,0.000885,0,0
0:3:24.433,370.79,47.2084,0,0.000885,0,0
0:3:25.829,373.78,47.5945,0,0.000885,0,0
0:3:27.229,376.302,47.9117,0,0.000885,0,0
0:3:28.627,378.94,48.2495,0,0.000885,0,0
0:3:30.030,381.755,48.608,0,0.000885,0,0
0:3:31.430,385.216,49.0493,0,0.000885,0,0
0:3:32.820,387.622,49.3527,0,0.000885,0,0
0:3:34.228,389.851,49.6354,0,0.000885,0,0
0:3:35.619,392.898,50.0284,0,0.000885,0,0
0:3:37.021,396.065,50.4283,0,0.000885,0,0
0:3:38.416,398.356,50.7178,0,0.000885,0,0
0:3:39.817,400.816,51.035,0,0.000885,0,0
0:3:41.235,403.867,51.4211,0,0.000885,0,0
0:3:42.637,406.857,51.8003,0,0.000885,0,0
0:3:44.035,409.441,52.1313,0,0.000885,0,0
0:3:45.430,412.194,52.4829,0,0.000885,0,0
0:3:46.820,414.774,52.8138,0,0.000885,0,0
0:3:48.214,417.71,53.1862,0,0.000885,0,0
0:3:49.616,420.348,53.5171,0,0.000885,0,0
0:3:51.025,422.986,53.8549,0,0.000885,0,0
0:3:52.415,425.628,54.1928,0,0.000885,0,0
0:3:53.815,428.444,54.5513,0,0.000885,0,0
0:3:55.218,430.846,54.8547,0,0.000885,0,0
0:3:56.620,433.368,55.1787,0,0.000885,0,0
0:3:58.020,437.064,55.6476,0,0.000885,0,0
0:3:59.441,439.587,55.9716,0,0.000885,0,0
0:4:0.833,442.402,56.3302,0,0.000885,0,0
0:4:2.236,444.924,56.6473,0,0.000885,0,0
0:4:3.627,448.092,57.0541,0,0.000885,0,0
0:4:5.034,450.672,57.3782,0,0.000885,0,0
0:4:6.427,453.252,57.7091,0,0.000885,0,0
0:4:7.834,456.241,58.0883,0,0.000885,0,0
0:4:9.234,458.647,58.3986,0,0.000885,0,0
0:4:10.631,461.169,58.7158,0,0.000885,0,0
0:4:12.024,464.216,59.1088,0,0.000885,0,0
0:4:13.440,466.801,59.4328,0,0.000885,0,0
0:4:14.846,469.79,59.8189,0,0.000885,0,0
0:4:16.226,472.606,60.1774,0,0.000885,0,0
0:4:17.621,475.364,60.5222,0,0.000885,0,0
0:4:19.036,478.117,60.8738,0,0.000885,0,0
0:4:20.428,480.759,61.2117,0,0.000885,0,0
0:4:21.822,483.513,61.5633,0,0.000885,0,0
0:4:23.235,486.035,61.8873,0,0.000885,0,0
0:4:24.636,489.029,62.2666,0,0.000885,0,0
0:4:26.034,491.844,62.6251,0,0.000885,0,0
0:4:27.426,494.189,62.9216,0,0.000885,0,0
0:4:28.828,497.827,63.3835,0,0.000885,0,0
0:4:30.230,499.993,63.6593,0,0.000885,0,0
0:4:31.634,503.223,64.073,0,0.000885,0,0
0:4:33.017,505.1,64.3143,0,0.000885,0,0
0:4:34.419,508.383,64.728,0,0.000885,0,0
0:4:35.839,510.963,65.0589,0,0.000885,0,0
0:4:37.230,513.836,65.4244,0,0.000885,0,0
0:4:38.622,516.185,65.7208,0,0.000885,0,0
0:4:40.028,519.059,66.0862,0,0.000885,0,0
0:4:41.428,522.106,66.4792,0,0.000885,0,0
0:4:42.825,524.806,66.8171,0,0.000885,0,0
0:4:44.239,526.976,67.0998,0,0.000885,0,0
0:4:45.643,530.143,67.4997,0,0.000885,0,0
0:4:47.024,533.368,67.9134,0,0.000885,0,0
0:4:48.428,536.184,68.2719,0,0.000885,0,0
0:4:49.833,538.119,68.5132,0,0.000885,0,0
0:4:51.231,541.051,68.8855,0,0.000885,0,0
0:4:52.625,543.924,69.2578,0,0.000885,0,0
0:4:54.019,546.624,69.5957,0,0.000885,0,0
0:4:55.436,548.968,69.899,0,0.000885,0,0
0:4:56.838,551.958,70.2783,0,0.000885,0,0
0:4:58.220,554.542,70.6092,0,0.000885,0,0
0:4:59.628,557.589,70.9953,0,0.000885,0,0
0:5:1.031,560.231,71.3332,0,0.000885,0,0
0:5:2.426,563.105,71.6986,0,0.000885,0,0
0:5:3.819,565.565,72.0088,0,0.000885,0,0
0:5:5.225,568.616,72.4018,0,0.000885,0,0
0:5:6.627,571.196,72.7259,0,0.000885,0,0
0:5:8.023,574.248,73.112,0,0.000885,0,0
0:5:9.432,576.65,73.4223,0,0.000885,0,0
0:5:10.840,579.234,73.7532,0,0.000885,0,0
0:5:12.232,582.045,74.1117,0,0.000885,0,0
0:5:13.639,584.745,74.4496,0,0.000885,0,0
0:5:15.045,587.797,74.8426,0,0.000885,0,0
0:5:16.429,590.786,75.2218,0,0.000885,0,0
0:5:17.821,592.605,75.4562,0,0.000885,0,0
0:5:19.231,595.016,75.7596,0,0.000885,0,0
0:5:20.632,595.541,75.8285,0,0.000885,0,0
0:5:22.042,598.655,76.2215,0,0.000885,0,0
0:5:23.433,601.942,76.6421,0,0.000885,0,0
0:5:24.849,604.816,77.0075,0,0.000885,0,0
0:5:26.245,606.991,77.2833,0,0.000885,0,0
0:5:27.635,610.51,77.7315,0,0.000885,0,0
0:5:29.040,612.974,78.0487,0,0.000885,0,0
0:5:30.447,607.636,77.3661,0,0.000885,0,0
0:5:31.000,514.601,65.5209,0,0.000885,0,0