File: DataFile2021-06-08_072940.csv
Test ID:,Date Tested:,Time:,Test Type:,Diameter Avg. (mm):,Cyl. Corr. Factor:,Height (mm):,Age (days):,Weight (kN):,Break Type:,Ramp Rate (MPa/s):,Load at Break (kN):,Stress at Break (MPa):
12,6/8/2021,07:29,Cylinder,100,1,200,0,3.6,3,0.22,236.54,30.12
Sample Time,Load (kN),Stress (MPa),Long. Strain,Trans. Strain,Chan1 Deflection (mm),Chan2 Deflection (mm)
0:0:20.731,5.8672,0.744634,0,0.000885,0,0
0:0:21.326,13.4292,1.7099,0,0.000885,0,0
0:0:21.915,12.2015,1.55132,0,0.000885,0,0
0:0:22.509,11.6721,1.48927,0,0.000885,0,0
0:0:23.127,11.4942,1.46169,0,0.000885,0,0
0:0:23.733,11.4942,1.46169,0,0.000885,0,0
0:0:24.328,11.4942,1.46169,0,0.000885,0,0
0:0:24.919,12.2015,1.55132,0,0.000885,0,0
0:0:25.514,13.1356,1.67543,0,0.000885,0,0
0:0:26.107,14.7814,1.88227,0,0.000885,0,0
0:0:26.714,15.8935,2.02706,0,0.000885,0,0
0:0:27.319,17.5972,2.2408,0,0.000885,0,0
0:0:27.926,19.2386,2.44764,0,0.000885,0,0
0:0:28.532,20.5864,2.62001,0,0.000885,0,0
0:0:29.127,22.2278,2.82685,0,0.000885,0,0
0:0:29.725,23.4599,2.98543,0,0.000885,0,0
0:0:30.320,24.7499,3.1509,0,0.000885,0,0
0:0:30.919,25.7463,3.27501,0,0.000885,0,0
0:0:31.530,26.8628,3.4198,0,0.000885,0,0
0:0:32.133,27.5656,3.50943,0,0.000885,0,0
0:0:32.732,28.6821,3.65422,0,0.000885,0,0
0:0:33.328,29.3271,3.73696,0,0.000885,0,0
0:0:33.927,30.9107,3.93691,0,0.000885,0,0
0:0:34.526,31.9071,4.06101,0,0.000885,0,0
0:0:35.133,33.6063,4.28164,0,0.000885,0,0
0:0:35.729,34.4871,4.39196,0,0.000885,0,0
0:0:36.330,35.8349,4.56433,0,0.000885,0,0
0:0:36.939,37.1827,4.7367,0,0.000885,0,0
0:0:37.543,38.4148,4.88838,0,0.000885,0,0
0:0:38.142,39.5892,5.04007,0,0.000885,0,0
0:0:38.739,40.5277,5.15728,0,0.000885,0,0
0:0:39.335,42.1113,5.36412,0,0.000885,0,0
0:0:39.928,42.9342,5.46754,0,0.000885,0,0
0:0:40.526,43.9306,5.59165,0,0.000885,0,0
0:0:41.133,45.3941,5.77781,0,0.000885,0,0
0:0:41.741,46.1592,5.87433,0,0.000885,0,0
0:0:42.348,47.4492,6.03981,0,0.000885,0,0
0:0:42.950,48.9749,6.23286,0,0.000885,0,0
0:0:43.547,50.2649,6.39833,0,0.000885,0,0
0:0:44.144,51.0834,6.50176,0,0.000885,0,0
0:0:44.744,52.5513,6.68791,0,0.000885,0,0
0:0:45.341,53.6633,6.8327,0,0.000885,0,0
0:0:45.941,54.8377,6.98439,0,0.000885,0,0
0:0:46.551,56.012,7.12918,0,0.000885,0,0
0:0:47.157,56.8928,7.24639,0,0.000885,0,0
0:0:47.756,57.8892,7.3705,0,0.000885,0,0
0:0:48.354,59.2948,7.54976,0,0.000885,0,0
0:0:48.952,60.8205,7.74281,0,0.000885,0,0
0:0:49.550,62.1683,7.91518,0,0.000885,0,0
0:0:50.146,63.5206,8.08755,0,0.000885,0,0
0:0:50.741,64.2234,8.17718,0,0.000885,0,0
0:0:51.347,65.2777,8.30818,0,0.000885,0,0
0:0:51.953,66.5676,8.47366,0,0.000885,0,0
0:0:52.559,67.564,8.60466,0,0.000885,0,0
0:0:53.157,69.032,8.79082,0,0.000885,0,0
0:0:53.753,69.6769,8.87355,0,0.000885,0,0
0:0:54.348,70.9091,9.02524,0,0.000885,0,0
0:0:54.945,72.3726,9.21829,0,0.000885,0,0
0:0:55.543,73.2533,9.32861,0,0.000885,0,0
0:0:56.143,75.0148,9.54924,0,0.000885,0,0
0:0:56.753,76.1891,9.70092,0,0.000885,0,0
0:0:57.359,77.359,9.85261,0,0.000885,0,0
0:0:57.957,77.8884,9.91466,0,0.000885,0,0
0:0:58.558,79.294,10.0939,0,0.000885,0,0
0:0:59.156,80.9398,10.3077,0,0.000885,0,0
0:0:59.755,81.8161,10.418,0,0.000885,0,0
0:1:0.348,83.2262,10.5972,0,0.000885,0,0
0:1:0.945,83.9869,10.6938,0,0.000885,0,0
0:1:1.553,85.5704,10.8937,0,0.000885,0,0
0:1:2.159,86.3934,10.9971,0,0.000885,0,0
0:1:2.765,87.3898,11.1281,0,0.000885,0,0
0:1:3.363,89.089,11.3419,0,0.000885,0,0
0:1:3.960,90.1477,11.4798,0,0.000885,0,0
0:1:4.554,91.024,11.5901,0,0.000885,0,0
0:1:5.153,92.1983,11.7418,0,0.000885,0,0
0:1:5.751,93.7819,11.9417,0,0.000885,0,0
0:1:6.349,95.014,12.1003,0,0.000885,0,0
0:1:6.959,96.0104,12.2244,0,0.000885,0,0
0:1:7.563,96.7132,12.314,0,0.000885,0,0
0:1:8.163,98.1811,12.5002,0,0.000885,0,0
0:1:8.761,99.2354,12.6381,0,0.000885,0,0
0:1:9.360,100.588,12.8036,0,0.000885,0,0
0:1:9.957,101.993,12.9828,0,0.000885,0,0
0:1:10.554,102.932,13.1069,0,0.000885,0,0
0:1:11.157,104.222,13.2724,0,0.000885,0,0
0:1:11.765,105.103,13.3827,0,0.000885,0,0
0:1:12.371,106.393,13.5482,0,0.000885,0,0
0:1:12.969,107.505,13.6861,0,0.000885,0,0
0:1:13.568,108.795,13.8516,0,0.000885,0,0
0:1:14.163,110.027,14.0101,0,0.000885,0,0
0:1:14.758,110.908,14.1205,0,0.000885,0,0
0:1:15.355,112.611,14.3411,0,0.000885,0,0
0:1:15.955,113.608,14.4652,0,0.000885,0,0
0:1:16.563,114.898,14.6307,0,0.000885,0,0
0:1:17.169,116.01,14.7686,0,0.000885,0,0
0:1:17.770,117.651,14.9823,0,0.000885,0,0
0:1:18.366,118.358,15.0719,0,0.000885,0,0
0:1:18.963,119.88,15.265,0,0.000885,0,0
0:1:19.560,120.409,15.3339,0,0.000885,0,0
0:1:20.158,121.347,15.4512,0,0.000885,0,0
0:1:20.758,123.167,15.6787,0,0.000885,0,0
0:1:21.356,123.927,15.7821,0,0.000885,0,0
0:1:21.965,125.453,15.9752,0,0.000885,0,0
0:1:22.572,127.095,16.182,0,0.000885,0,0
0:1:23.171,128.385,16.3475,0,0.000885,0,0
0:1:23.768,129.03,16.4302,0,0.000885,0,0
0:1:24.366,129.968,16.5474,0,0.000885,0,0
0:1:24.960,131.436,16.7336,0,0.000885,0,0
0:1:25.557,132.317,16.8439,0,0.000885,0,0
0:1:26.153,133.607,17.0094,0,0.000885,0,0
0:1:26.761,135.012,17.1886,0,0.000885,0,0
0:1:27.369,135.951,17.3127,0,0.000885,0,0
0:1:27.972,136.947,17.4368,0,0.000885,0,0
0:1:28.569,138.18,17.5954,0,0.000885,0,0
0:1:29.163,139.705,17.7885,0,0.000885,0,0
0:1:29.760,140.644,17.9057,0,0.000885,0,0
0:1:30.357,142.227,18.1056,0,0.000885,0,0
0:1:30.957,143.108,18.2228,0,0.000885,0,0
0:1:31.567,144.398,18.3883,0,0.000885,0,0
0:1:32.172,145.51,18.5262,0,0.000885,0,0
0:1:32.770,146.449,18.6434,0,0.000885,0,0
0:1:33.366,147.739,18.8089,0,0.000885,0,0
0:1:33.968,149.029,18.9744,0,0.000885,0,0
0:1:34.566,150.203,19.1261,0,0.000885,0,0
0:1:35.164,151.32,19.264,0,0.000885,0,0
0:1:35.760,152.552,19.4225,0,0.000885,0,0
0:1:36.361,153.197,19.5053,0,0.000885,0,0
0:1:36.969,154.896,19.719,0,0.000885,0,0
0:1:37.575,155.657,19.8224,0,0.000885,0,0
0:1:38.173,157.24,20.0224,0,0.000885,0,0
0:1:38.770,158.592,20.1947,0,0.000885,0,0
0:1:39.367,159.237,20.2775,0,0.000885,0,0
0:1:39.963,160.821,20.4774,0,0.000885,0,0
0:1:40.557,162.053,20.636,0,0.000885,0,0
0:1:41.156,163.165,20.7739,0,0.000885,0,0
0:1:41.766,164.864,20.9945,0,0.000885,0,0
0:1:42.370,165.63,21.0911,0,0.000885,0,0
0:1:42.973,166.626,21.2152,0,0.000885,0,0
0:1:43.568,167.271,21.2979,0,0.000885,0,0
0:1:44.164,168.797,21.491,0,0.000885,0,0
0:1:44.763,169.971,21.6426,0,0.000885,0,0
0:1:45.361,171.377,21.8219,0,0.000885,0,0
0:1:45.959,172.782,22.0012,0,0.000885,0,0
0:1:46.568,173.49,22.0908,0,0.000885,0,0
0:1:47.173,175.131,22.2976,0,0.000885,0,0
0:1:47.770,176.363,22.4562,0,0.000885,0,0
0:1:48.369,177.533,22.6079,0,0.000885,0,0
0:1:48.968,178.004,22.6631,0,0.000885,0,0
0:1:49.565,179.939,22.9113,0,0.000885,0,0
0:1:50.161,180.994,23.0423,0,0.000885,0,0
0:1:50.758,181.874,23.1595,0,0.000885,0,0
0:1:51.365,183.342,23.3456,0,0.000885,0,0
0:1:51.973,184.223,23.456,0,0.000885,0,0
0:1:52.576,185.744,23.649,0,0.000885,0,0
0:1:53.177,186.452,23.7386,0,0.000885,0,0
0:1:53.771,187.506,23.8765,0,0.000885,0,0
0:1:54.368,188.854,24.0489,0,0.000885,0,0
0:1:54.965,190.264,24.2282,0,0.000885,0,0
0:1:55.562,190.909,24.304,0,0.000885,0,0
0:1:56.161,192.372,24.4971,0,0.000885,0,0
0:1:56.767,193.724,24.6625,0,0.000885,0,0
0:1:57.367,194.837,24.8073,0,0.000885,0,0
0:1:57.964,196.362,25.0004,0,0.000885,0,0
0:1:58.555,196.829,25.0624,0,0.000885,0,0
0:1:59.148,198.182,25.2348,0,0.000885,0,0
0:1:59.743,199.12,25.352,0,0.000885,0,0
0:2:0.336,200.526,25.5313,0,0.000885,0,0
0:2:0.929,201.874,25.7037,0,0.000885,0,0
0:2:1.534,202.87,25.8278,0,0.000885,0,0
0:2:2.133,204.222,26.0001,0,0.000885,0,0
0:2:2.736,205.512,26.1656,0,0.000885,0,0
0:2:3.329,206.744,26.3242,0,0.000885,0,0
0:2:3.923,207.389,26.4069,0,0.000885,0,0
0:2:4.525,208.737,26.5793,0,0.000885,0,0
0:2:5.126,210.143,26.7586,0,0.000885,0,0
0:2:5.717,211.024,26.8689,0,0.000885,0,0
0:2:6.321,212.314,27.0343,0,0.000885,0,0
0:2:6.923,213.079,27.1309,0,0.000885,0,0
0:2:7.522,213.955,27.2412,0,0.000885,0,0
0:2:8.125,215.249,27.4067,0,0.000885,0,0
0:2:8.725,216.304,27.5377,0,0.000885,0,0
0:2:9.316,217.829,27.7376,0,0.000885,0,0
0:2:9.917,218.354,27.7997,0,0.000885,0,0
0:2:10.521,219.764,27.9789,0,0.000885,0,0
0:2:11.115,221.29,28.172,0,0.000885,0,0
0:2:11.719,222.696,28.3512,0,0.000885,0,0
0:2:12.319,223.519,28.4616,0,0.000885,0,0
0:2:12.922,224.689,28.6063,0,0.000885,0,0
0:2:13.517,225.396,28.696,0,0.000885,0,0
0:2:14.129,225.747,28.7442,0,0.000885,0,0
0:2:14.732,227.153,28.9235,0,0.000885,0,0
0:2:15.336,227.856,29.0131,0,0.000885,0,0
0:2:15.935,228.443,29.089,0,0.000885,0,0
0:2:16.538,228.914,29.1441,0,0.000885,0,0
0:2:17.139,229.324,29.1993,0,0.000885,0,0
0:2:17.740,230.147,29.3027,0,0.000885,0,0
0:2:18.342,231.437,29.4682,0,0.000885,0,0
0:2:18.933,233.194,29.6888,0,0.000885,0,0
0:2:19.532,234.484,29.8543,0,0.000885,0,0
0:2:20.127,235.894,30.0336,0,0.000885,0,0
0:2:20.722,236.539,30.1163,0,0.000885,0,0
0:2:21.314,236.067,30.0542,0,0.000885,0,0
0:2:21.916,235.186,29.9439,0,0.000885,0,0
0:2:22.516,233.371,29.7164,0,0.000885,0,0
0:2:23.129,231.085,29.4199,0,0.000885,0,0
0:2:23.731,228.852,29.1372,0,0.000885,0,0
0:2:24.332,224.337,28.565,0,0.000885,0,0
0:2:24.937,217.651,27.71,0,0.000885,0,0
0:2:25.527,207.389,26.4069,0,0.000885,0,0
0:2:26.121,199.12,25.352,0,0.000885,0,0
0:2:26.724,191.376,24.3661,0,0.000885,0,0
0:2:27.327,180.527,22.9871,0,0.000885,0,0
0:2:27.947,168.325,21.4289,0,0.000885,0,0