File: DataFile2021-06-06_055535.csv
Test ID:,Date Tested:,Time:,Test Type:,Diameter Avg. (mm):,Cyl. Corr. Factor:,Height (mm):,Age (days):,Weight (kN):,Break Type:,Ramp Rate (MPa/s):,Load at Break (kN):,Stress at Break (MPa):
12,6/6/2021,05:55,Cylinder,150,1,300,0,13.39,1,0.25,2171.3,122.87
Sample Time,Load (kN),Stress (MPa),Long. Strain,Trans. Strain,Chan1 Deflection (mm),Chan2 Deflection (mm)
0:0:18.292,5.7471,0.324054,0,0.000885,0,0
0:0:20.386,13.785,0.779108,0,0.000885,0,0
0:0:22.483,23.8113,1.34448,0,0.000885,0,0
0:0:24.601,34.3714,1.94432,0,0.000885,0,0
0:0:26.699,42.5206,2.40627,0,0.000885,0,0
0:0:28.798,52.0798,2.94406,0,0.000885,0,0
0:0:30.905,61.0563,3.45427,0,0.000885,0,0
0:0:32.996,70.4999,3.99206,0,0.000885,0,0
0:0:35.111,79.5876,4.50228,0,0.000885,0,0
0:0:37.200,89.089,5.04007,0,0.000885,0,0
0:0:39.300,98.4747,5.57096,0,0.000885,0,0
0:0:41.405,107.273,6.06739,0,0.000885,0,0
0:0:43.493,116.481,6.59139,0,0.000885,0,0
0:0:45.609,126.098,7.13607,0,0.000885,0,0
0:0:47.699,135.19,7.65318,0,0.000885,0,0
0:0:49.815,144.398,8.17029,0,0.000885,0,0
0:0:51.910,153.548,8.68739,0,0.000885,0,0
0:0:54.012,163.05,9.22519,0,0.000885,0,0
0:0:56.117,173.018,9.79056,0,0.000885,0,0
0:0:58.207,181.639,10.2801,0,0.000885,0,0
0:1:0.320,191.554,10.8386,0,0.000885,0,0
0:1:2.396,199.939,11.3143,0,0.000885,0,0
0:1:4.500,209.969,11.8797,0,0.000885,0,0
0:1:6.594,218.648,12.3761,0,0.000885,0,0
0:1:8.691,228.972,12.9552,0,0.000885,0,0
0:1:10.792,236.832,13.4034,0,0.000885,0,0
0:1:12.898,247.21,13.9895,0,0.000885,0,0
0:1:15.001,256.186,14.4997,0,0.000885,0,0
0:1:17.090,265.274,15.0099,0,0.000885,0,0
0:1:19.199,274.486,15.5339,0,0.000885,0,0
0:1:21.292,284.277,16.0855,0,0.000885,0,0
0:1:23.397,292.96,16.575,0,0.000885,0,0
0:1:25.496,302.461,17.1128,0,0.000885,0,0
0:1:27.591,311.727,17.6368,0,0.000885,0,0
0:1:29.697,321.522,18.1953,0,0.000885,0,0
0:1:31.786,329.675,18.6572,0,0.000885,0,0
0:1:33.903,339.47,19.2088,0,0.000885,0,0
0:1:35.993,348.207,19.7052,0,0.000885,0,0
0:1:38.098,358.353,20.2775,0,0.000885,0,0
0:1:40.200,366.743,20.7532,0,0.000885,0,0
0:1:42.294,376.48,21.3048,0,0.000885,0,0
0:1:44.404,385.1,21.7943,0,0.000885,0,0
0:1:46.498,395.772,22.3942,0,0.000885,0,0
0:1:48.588,403.983,22.863,0,0.000885,0,0
0:1:50.698,414.129,23.4353,0,0.000885,0,0
0:1:52.802,423.164,23.9455,0,0.000885,0,0
0:1:54.901,432.487,24.4764,0,0.000885,0,0
0:1:56.997,441.112,24.959,0,0.000885,0,0
0:1:59.102,451.139,25.5313,0,0.000885,0,0
0:2:1.201,459.937,26.0277,0,0.000885,0,0
0:2:3.297,469.674,26.5793,0,0.000885,0,0
0:2:5.394,479.056,27.1102,0,0.000885,0,0
0:2:7.499,487.739,27.5997,0,0.000885,0,0
0:2:9.603,497.004,28.1237,0,0.000885,0,0
0:2:11.700,506.684,28.6753,0,0.000885,0,0
0:2:13.804,515.246,29.1579,0,0.000885,0,0
0:2:15.895,525.041,29.7095,0,0.000885,0,0
0:2:18.002,534.538,30.2473,0,0.000885,0,0
0:2:20.101,543.221,30.7368,0,0.000885,0,0
0:2:22.199,553.132,31.3022,0,0.000885,0,0
0:2:24.305,561.401,31.771,0,0.000885,0,0
0:2:26.403,571.61,32.3433,0,0.000885,0,0
0:2:28.496,580.11,32.8259,0,0.000885,0,0
0:2:30.598,590.319,33.4051,0,0.000885,0,0
0:2:32.701,599.064,33.9015,0,0.000885,0,0
0:2:34.815,609.099,34.4669,0,0.000885,0,0
0:2:36.908,618.138,34.9771,0,0.000885,0,0
0:2:39.003,626.532,35.4528,0,0.000885,0,0
0:2:41.112,636.22,36.0044,0,0.000885,0,0
0:2:43.205,645.433,36.5215,0,0.000885,0,0
0:2:45.313,654.649,37.0455,0,0.000885,0,0
0:2:47.408,664.453,37.5971,0,0.000885,0,0
0:2:49.511,673.906,38.1349,0,0.000885,0,0
0:2:51.602,682.415,38.6175,0,0.000885,0,0
0:2:53.706,691.867,39.1484,0,0.000885,0,0
0:2:55.815,701.08,39.6724,0,0.000885,0,0
0:2:57.902,710.417,40.2033,0,0.000885,0,0
0:3:0.023,719.985,40.7411,0,0.000885,0,0
0:3:2.107,729.139,41.2582,0,0.000885,0,0
0:3:4.215,738.236,41.7753,0,0.000885,0,0
0:3:6.309,748.453,42.3545,0,0.000885,0,0
0:3:8.404,756.963,42.8371,0,0.000885,0,0
0:3:10.511,766.473,43.3749,0,0.000885,0,0
0:3:12.607,775.863,43.9058,0,0.000885,0,0
0:3:14.707,784.844,44.416,0,0.000885,0,0
0:3:16.800,794.648,44.9676,0,0.000885,0,0
0:3:18.906,803.687,45.4778,0,0.000885,0,0
0:3:21.009,812.61,45.9811,0,0.000885,0,0
0:3:23.105,821.769,46.5051,0,0.000885,0,0
0:3:25.214,831.982,47.0774,0,0.000885,0,0
0:3:27.297,839.962,47.5325,0,0.000885,0,0
0:3:29.417,849.824,48.0909,0,0.000885,0,0
0:3:31.511,858.511,48.5805,0,0.000885,0,0
0:3:33.608,868.551,49.1527,0,0.000885,0,0
0:3:35.719,877.474,49.656,0,0.000885,0,0
0:3:37.812,886.98,50.1938,0,0.000885,0,0
0:3:39.914,895.258,50.6627,0,0.000885,0,0
0:3:42.006,905.471,51.2418,0,0.000885,0,0
0:3:44.109,914.043,51.7245,0,0.000885,0,0
0:3:46.211,924.314,52.3036,0,0.000885,0,0
0:3:48.306,933.588,52.8276,0,0.000885,0,0
0:3:50.417,942.218,53.3172,0,0.000885,0,0
0:3:52.511,952.08,53.8756,0,0.000885,0,0
0:3:54.616,960.825,54.3721,0,0.000885,0,0
0:3:56.707,970.509,54.9167,0,0.000885,0,0
0:3:58.800,979.432,55.427,0,0.000885,0,0
0:4:0.910,989.12,55.9716,0,0.000885,0,0
0:4:3.013,998.039,56.475,0,0.000885,0,0
0:4:5.117,1007.38,57.0059,0,0.000885,0,0
0:4:7.203,1016.53,57.523,0,0.000885,0,0
0:4:9.315,1026.39,58.0814,0,0.000885,0,0
0:4:11.408,1035.2,58.5779,0,0.000885,0,0
0:4:13.500,1044.88,59.1294,0,0.000885,0,0
0:4:15.613,1054.04,59.6465,0,0.000885,0,0
0:4:17.704,1062.79,60.143,0,0.000885,0,0
0:4:19.817,1071.71,60.6463,0,0.000885,0,0
0:4:21.910,1081.8,61.2185,0,0.000885,0,0
0:4:24.014,1090.84,61.7288,0,0.000885,0,0
0:4:26.114,1100.12,62.2528,0,0.000885,0,0
0:4:28.205,1109.92,62.8112,0,0.000885,0,0
0:4:30.314,1118.9,63.3146,0,0.000885,0,0
0:4:32.406,1128,63.8317,0,0.000885,0,0
0:4:34.516,1136.86,64.335,0,0.000885,0,0
0:4:36.609,1146.84,64.9004,0,0.000885,0,0
0:4:38.714,1155.88,65.4106,0,0.000885,0,0
0:4:40.814,1164.74,65.9139,0,0.000885,0,0
0:4:42.906,1173.96,66.431,0,0.000885,0,0
0:4:45.018,1183.77,66.9895,0,0.000885,0,0
0:4:47.114,1192.75,67.4928,0,0.000885,0,0
0:4:49.217,1202.19,68.0306,0,0.000885,0,0
0:4:51.315,1211.47,68.5546,0,0.000885,0,0
0:4:53.398,1220.86,69.0855,0,0.000885,0,0
0:4:55.516,1229.9,69.5957,0,0.000885,0,0
0:4:57.609,1239.35,70.1335,0,0.000885,0,0
0:4:59.715,1248.51,70.6506,0,0.000885,0,0
0:5:1.818,1257.67,71.1677,0,0.000885,0,0
0:5:3.903,1266.71,71.6779,0,0.000885,0,0
0:5:6.013,1276.51,72.2364,0,0.000885,0,0
0:5:8.105,1285.08,72.719,0,0.000885,0,0
0:5:10.216,1294.88,73.2775,0,0.000885,0,0
0:5:12.309,1303.92,73.7877,0,0.000885,0,0
0:5:14.414,1313.78,74.3462,0,0.000885,0,0
0:5:16.516,1322.71,74.8495,0,0.000885,0,0
0:5:18.609,1332.8,75.4217,0,0.000885,0,0
0:5:20.720,1341.96,75.9389,0,0.000885,0,0
0:5:22.811,1350.35,76.4146,0,0.000885,0,0
0:5:24.925,1359.75,76.9455,0,0.000885,0,0
0:5:27.014,1369.19,77.4833,0,0.000885,0,0
0:5:29.115,1378.41,78.0004,0,0.000885,0,0
0:5:31.216,1387.92,78.5382,0,0.000885,0,0
0:5:33.307,1397.25,79.0691,0,0.000885,0,0
0:5:35.422,1406.47,79.5931,0,0.000885,0,0
0:5:37.512,1415.62,80.1102,0,0.000885,0,0
0:5:39.626,1424.61,80.6135,0,0.000885,0,0
0:5:41.719,1434.06,81.1513,0,0.000885,0,0
0:5:43.813,1443.1,81.6615,0,0.000885,0,0
0:5:45.925,1452.66,82.2062,0,0.000885,0,0
0:5:48.019,1461.65,82.7095,0,0.000885,0,0
0:5:50.127,1471.33,83.2611,0,0.000885,0,0
0:5:52.210,1481.25,83.8196,0,0.000885,0,0
0:5:54.317,1489.61,84.2953,0,0.000885,0,0
0:5:56.409,1499.03,84.8262,0,0.000885,0,0
0:5:58.514,1508.75,85.3778,0,0.000885,0,0
0:6:0.626,1518.05,85.9018,0,0.000885,0,0
0:6:2.722,1526.83,86.3982,0,0.000885,0,0
0:6:4.826,1536.31,86.936,0,0.000885,0,0
0:6:6.919,1545.67,87.4669,0,0.000885,0,0
0:6:9.005,1554.62,87.9702,0,0.000885,0,0
0:6:11.109,1563.98,88.5011,0,0.000885,0,0
0:6:13.212,1573.52,89.0458,0,0.000885,0,0
0:6:15.323,1582.41,89.5491,0,0.000885,0,0
0:6:17.421,1592.19,90.1007,0,0.000885,0,0
0:6:19.534,1600.49,90.5695,0,0.000885,0,0
0:6:21.626,1610.62,91.1418,0,0.000885,0,0
0:6:23.722,1619.57,91.652,0,0.000885,0,0
0:6:25.831,1629.11,92.1898,0,0.000885,0,0
0:6:27.912,1638.06,92.6931,0,0.000885,0,0
0:6:30.015,1647.36,93.224,0,0.000885,0,0
0:6:32.111,1656.84,93.7549,0,0.000885,0,0
0:6:34.226,1665.61,94.2513,0,0.000885,0,0
0:6:36.328,1676.04,94.8443,0,0.000885,0,0
0:6:38.411,1684.81,95.3407,0,0.000885,0,0
0:6:40.524,1694.47,95.8854,0,0.000885,0,0
0:6:42.607,1703.42,96.3956,0,0.000885,0,0
0:6:44.723,1713.01,96.9403,0,0.000885,0,0
0:6:46.825,1722.08,97.4505,0,0.000885,0,0
0:6:48.919,1730.74,97.94,0,0.000885,0,0
0:6:51.028,1740.81,98.5123,0,0.000885,0,0
0:6:53.120,1749.41,98.9949,0,0.000885,0,0
0:6:55.231,1759.06,99.5396,0,0.000885,0,0
0:6:57.312,1768.07,100.05,0,0.000885,0,0
0:6:59.425,1777.49,100.588,0,0.000885,0,0
0:7:1.516,1787.15,101.132,0,0.000885,0,0
0:7:3.609,1796.16,101.643,0,0.000885,0,0
0:7:5.721,1805.23,102.153,0,0.000885,0,0
0:7:7.815,1814.41,102.677,0,0.000885,0,0
0:7:9.919,1823.89,103.215,0,0.000885,0,0
0:7:12.021,1833.08,103.732,0,0.000885,0,0
0:7:14.136,1842.26,104.249,0,0.000885,0,0
0:7:16.234,1852.33,104.821,0,0.000885,0,0
0:7:18.316,1861.17,105.317,0,0.000885,0,0
0:7:20.423,1870.41,105.841,0,0.000885,0,0
0:7:22.530,1881.48,106.469,0,0.000885,0,0
0:7:24.632,1888.43,106.862,0,0.000885,0,0
0:7:26.723,1897.85,107.4,0,0.000885,0,0
0:7:28.818,1907.57,107.944,0,0.000885,0,0
0:7:30.932,1916.75,108.468,0,0.000885,0,0
0:7:33.015,1926.12,108.992,0,0.000885,0,0
0:7:35.123,1935,109.496,0,0.000885,0,0
0:7:37.206,1944.42,110.033,0,0.000885,0,0
0:7:39.308,1953.91,110.571,0,0.000885,0,0
0:7:41.412,1963.03,111.088,0,0.000885,0,0
0:7:43.531,1971.99,111.592,0,0.000885,0,0
0:7:45.644,1981.64,112.136,0,0.000885,0,0
0:7:47.732,1990.59,112.647,0,0.000885,0,0
0:7:49.845,2000.07,113.177,0,0.000885,0,0
0:7:51.935,2009.44,113.708,0,0.000885,0,0
0:7:54.036,2018.38,114.219,0,0.000885,0,0
0:7:56.137,2028.04,114.763,0,0.000885,0,0
0:7:58.233,2037.58,115.301,0,0.000885,0,0
0:8:0.344,2046.71,115.818,0,0.000885,0,0
0:8:2.431,2055.48,116.315,0,0.000885,0,0
0:8:4.534,2065.19,116.866,0,0.000885,0,0
0:8:6.623,2074.56,117.397,0,0.000885,0,0
0:8:8.728,2083.68,117.914,0,0.000885,0,0
0:8:10.842,2092.58,118.417,0,0.000885,0,0
0:8:12.923,2102.23,118.962,0,0.000885,0,0
0:8:15.026,2111.71,119.5,0,0.000885,0,0
0:8:17.124,2120.9,120.017,0,0.000885,0,0
0:8:19.234,2129.73,120.52,0,0.000885,0,0
0:8:21.321,2139.63,121.079,0,0.000885,0,0
0:8:23.415,2147.4,121.52,0,0.000885,0,0
0:8:25.524,2158.46,122.148,0,0.000885,0,0
0:8:27.618,2167.06,122.63,0,0.000885,0,0
0:8:28.863,2171.83,122.899,0,0.000885,0,0