File: DataFile2021-06-08_053839.csv
Test ID:,Date Tested:,Time:,Test Type:,Diameter Avg. (mm):,Cyl. Corr. Factor:,Height (mm):,Age (days):,Weight (kN):,Break Type:,Ramp Rate (MPa/s):,Load at Break (kN):,Stress at Break (MPa):
12,6/8/2021,05:38,Cylinder,150,1,300,0,3.6,6,0.24,980.78,55.5
Sample Time,Load (kN),Stress (MPa),Long. Strain,Trans. Strain,Chan1 Deflection (mm),Chan2 Deflection (mm)
0:0:14.655,7.03709,0.399896,0,0.000885,0,0
0:0:15.649,21.992,1.24795,0,0.000885,0,0
0:0:16.641,20.9378,1.1859,0,0.000885,0,0
0:0:17.632,20.702,1.17211,0,0.000885,0,0
0:0:18.632,22.4057,1.26864,0,0.000885,0,0
0:0:19.635,26.9785,1.52374,0,0.000885,0,0
0:0:20.646,31.9071,1.80643,0,0.000885,0,0
0:0:21.652,36.422,2.06153,0,0.000885,0,0
0:0:22.646,40.8792,2.31664,0,0.000885,0,0
0:0:23.640,45.1005,2.55106,0,0.000885,0,0
0:0:24.636,49.3842,2.79238,0,0.000885,0,0
0:0:25.648,53.8413,3.04748,0,0.000885,0,0
0:0:26.652,58.7076,3.32327,0,0.000885,0,0
0:0:27.647,61.7591,3.49564,0,0.000885,0,0
0:0:28.643,67.1548,3.79901,0,0.000885,0,0
0:0:29.640,72.0212,4.0748,0,0.000885,0,0
0:0:30.644,75.5397,4.27475,0,0.000885,0,0
0:0:31.654,80.584,4.55743,0,0.000885,0,0
0:0:32.650,84.4584,4.77807,0,0.000885,0,0
0:0:33.646,89.3826,5.06075,0,0.000885,0,0
0:0:34.641,93.6662,5.30207,0,0.000885,0,0
0:0:35.644,97.8297,5.53649,0,0.000885,0,0
0:0:36.655,102.932,5.82607,0,0.000885,0,0
0:0:37.649,107.211,6.06739,0,0.000885,0,0
0:0:38.643,110.734,6.26733,0,0.000885,0,0
0:0:39.637,115.836,6.55691,0,0.000885,0,0
0:0:40.644,120.173,6.79823,0,0.000885,0,0
0:0:41.651,124.457,7.03955,0,0.000885,0,0
0:0:42.645,129.207,7.30844,0,0.000885,0,0
0:0:43.640,133.313,7.54286,0,0.000885,0,0
0:0:44.637,137.655,7.79108,0,0.000885,0,0
0:0:45.647,142.227,8.04618,0,0.000885,0,0
0:0:46.651,147.507,8.34955,0,0.000885,0,0
0:0:47.644,150.968,8.5426,0,0.000885,0,0
0:0:48.639,155.074,8.77703,0,0.000885,0,0
0:0:49.634,159.882,9.04592,0,0.000885,0,0
0:0:50.647,164.162,9.28724,0,0.000885,0,0
0:0:51.651,168.797,9.54924,0,0.000885,0,0
0:0:52.649,173.312,9.80434,0,0.000885,0,0
0:0:53.642,176.95,10.0112,0,0.000885,0,0
0:0:54.639,181.932,10.2939,0,0.000885,0,0
0:0:55.648,186.274,10.5421,0,0.000885,0,0
0:0:56.652,190.673,10.7903,0,0.000885,0,0
0:0:57.646,195.366,11.0523,0,0.000885,0,0
0:0:58.632,199.645,11.3005,0,0.000885,0,0
0:0:59.629,203.457,11.5142,0,0.000885,0,0
0:1:0.632,208.208,11.7831,0,0.000885,0,0
0:1:1.632,212.082,12.0038,0,0.000885,0,0
0:1:2.628,217.358,12.3002,0,0.000885,0,0
0:1:3.637,220.761,12.4933,0,0.000885,0,0
0:1:4.634,225.569,12.7622,0,0.000885,0,0
0:1:5.642,230.965,13.0725,0,0.000885,0,0
0:1:6.644,235.013,13.3,0,0.000885,0,0
0:1:7.630,239.821,13.5689,0,0.000885,0,0
0:1:8.628,243.34,13.7688,0,0.000885,0,0
0:1:9.637,248.091,14.0377,0,0.000885,0,0
0:1:10.642,253.077,14.3204,0,0.000885,0,0
0:1:11.637,256.422,14.5135,0,0.000885,0,0
0:1:12.635,261.462,14.7961,0,0.000885,0,0
0:1:13.630,265.51,15.0237,0,0.000885,0,0
0:1:14.640,269.38,15.2443,0,0.000885,0,0
0:1:15.643,274.953,15.5615,0,0.000885,0,0
0:1:16.640,278.708,15.7683,0,0.000885,0,0
0:1:17.637,283.868,16.0648,0,0.000885,0,0
0:1:18.636,288.151,16.3061,0,0.000885,0,0
0:1:19.642,292.315,16.5405,0,0.000885,0,0
0:1:20.639,296.772,16.7956,0,0.000885,0,0
0:1:21.643,300.7,17.0163,0,0.000885,0,0
0:1:22.629,304.748,17.2438,0,0.000885,0,0
0:1:23.639,309.908,17.5403,0,0.000885,0,0
0:1:24.636,314.485,17.7954,0,0.000885,0,0
0:1:25.642,319.293,18.0712,0,0.000885,0,0
0:1:26.644,322.99,18.278,0,0.000885,0,0
0:1:27.629,327.096,18.5124,0,0.000885,0,0
0:1:28.638,332.14,18.7951,0,0.000885,0,0
0:1:29.637,336.419,19.0364,0,0.000885,0,0
0:1:30.643,341.641,19.3329,0,0.000885,0,0
0:1:31.638,344.688,19.5053,0,0.000885,0,0
0:1:32.635,349.03,19.7535,0,0.000885,0,0
0:1:33.635,354.19,20.0431,0,0.000885,0,0
0:1:34.642,358.18,20.2706,0,0.000885,0,0
0:1:35.645,363.282,20.5602,0,0.000885,0,0
0:1:36.644,367.445,20.7946,0,0.000885,0,0
0:1:37.642,371.609,21.029,0,0.000885,0,0
0:1:38.638,376.244,21.291,0,0.000885,0,0
0:1:39.632,380.995,21.5599,0,0.000885,0,0
0:1:40.639,385.158,21.7943,0,0.000885,0,0
0:1:41.644,389.437,22.0356,0,0.000885,0,0
0:1:42.630,393.605,22.2701,0,0.000885,0,0
0:1:43.638,398.587,22.5528,0,0.000885,0,0
0:1:44.645,402.751,22.7941,0,0.000885,0,0
0:1:45.650,407.212,23.0423,0,0.000885,0,0
0:1:46.645,410.904,23.2491,0,0.000885,0,0
0:1:47.640,416.3,23.5594,0,0.000885,0,0
0:1:48.638,420.526,23.7938,0,0.000885,0,0
0:1:49.624,425.392,24.0696,0,0.000885,0,0
0:1:50.625,428.559,24.2489,0,0.000885,0,0
0:1:51.634,433.368,24.5247,0,0.000885,0,0
0:1:52.643,437.3,24.7453,0,0.000885,0,0
0:1:53.631,442.754,25.0555,0,0.000885,0,0
0:1:54.640,446.802,25.2831,0,0.000885,0,0
0:1:55.635,450.614,25.4968,0,0.000885,0,0
0:1:56.638,456.067,25.8071,0,0.000885,0,0
0:1:57.635,460.404,26.0553,0,0.000885,0,0
0:1:58.632,464.452,26.2828,0,0.000885,0,0
0:1:59.629,469.203,26.5517,0,0.000885,0,0
0:2:0.646,473.602,26.7999,0,0.000885,0,0
0:2:1.648,478.295,27.0688,0,0.000885,0,0
0:2:2.635,482.752,27.317,0,0.000885,0,0
0:2:3.633,486.506,27.5308,0,0.000885,0,0
0:2:4.643,490.848,27.779,0,0.000885,0,0
0:2:5.648,495.127,28.0203,0,0.000885,0,0
0:2:6.642,499.878,28.2892,0,0.000885,0,0
0:2:7.641,503.574,28.496,0,0.000885,0,0
0:2:8.636,508.97,28.7994,0,0.000885,0,0
0:2:9.633,513.956,29.0821,0,0.000885,0,0
0:2:10.640,517.648,29.2958,0,0.000885,0,0
0:2:11.644,522.048,29.544,0,0.000885,0,0
0:2:12.643,526.038,29.7647,0,0.000885,0,0
0:2:13.630,530.317,30.0129,0,0.000885,0,0
0:2:14.628,535.01,30.2749,0,0.000885,0,0
0:2:15.641,539.409,30.5231,0,0.000885,0,0
0:2:16.640,544.102,30.792,0,0.000885,0,0
0:2:17.646,547.914,31.0057,0,0.000885,0,0
0:2:18.644,553.31,31.3091,0,0.000885,0,0
0:2:19.641,556.944,31.5159,0,0.000885,0,0
0:2:20.636,561.521,31.7779,0,0.000885,0,0
0:2:21.640,566.388,32.0537,0,0.000885,0,0
0:2:22.623,570.315,32.2744,0,0.000885,0,0
0:2:23.632,574.483,32.5088,0,0.000885,0,0
0:2:24.641,579.817,32.8121,0,0.000885,0,0
0:2:25.638,583.398,33.0121,0,0.000885,0,0
0:2:26.643,588.558,33.3086,0,0.000885,0,0
0:2:27.641,593.308,33.5775,0,0.000885,0,0
0:2:28.643,596.595,33.7636,0,0.000885,0,0
0:2:29.645,601.057,34.0118,0,0.000885,0,0
0:2:30.654,605.461,34.26,0,0.000885,0,0
0:2:31.654,610.332,34.5358,0,0.000885,0,0
0:2:32.648,615.202,34.8116,0,0.000885,0,0
0:2:33.638,619.077,35.0323,0,0.000885,0,0
0:2:34.630,623.832,35.3012,0,0.000885,0,0
0:2:35.641,627.764,35.5218,0,0.000885,0,0
0:2:36.642,633.049,35.8252,0,0.000885,0,0
0:2:37.644,636.572,36.0251,0,0.000885,0,0
0:2:38.647,641.091,36.2802,0,0.000885,0,0
0:2:39.638,646.433,36.5836,0,0.000885,0,0
0:2:40.645,650.13,36.7904,0,0.000885,0,0
0:2:41.648,655.001,37.0662,0,0.000885,0,0
0:2:42.643,658.875,37.2868,0,0.000885,0,0
0:2:43.644,663.572,37.5488,0,0.000885,0,0
0:2:44.646,667.62,37.7764,0,0.000885,0,0
0:2:45.646,672.26,38.0453,0,0.000885,0,0
0:2:46.652,677.073,38.3142,0,0.000885,0,0
0:2:47.644,681.063,38.5417,0,0.000885,0,0
0:2:48.646,684.764,38.7485,0,0.000885,0,0
0:2:49.638,689.986,39.045,0,0.000885,0,0
0:2:50.648,694.683,39.3139,0,0.000885,0,0
0:2:51.646,699.79,39.5966,0,0.000885,0,0
0:2:52.636,702.726,39.769,0,0.000885,0,0
0:2:53.629,707.596,40.0448,0,0.000885,0,0
0:2:54.633,712.174,40.2999,0,0.000885,0,0
0:2:55.640,716.226,40.5274,0,0.000885,0,0
0:2:56.653,721.333,40.817,0,0.000885,0,0
0:2:57.646,725.5,41.0583,0,0.000885,0,0
0:2:58.637,729.962,41.3065,0,0.000885,0,0
0:2:59.639,734.424,41.5616,0,0.000885,0,0
0:3:0.654,738.529,41.7891,0,0.000885,0,0
0:3:1.659,743.405,42.0649,0,0.000885,0,0
0:3:2.651,747.275,42.2855,0,0.000885,0,0
0:3:3.644,751.443,42.52,0,0.000885,0,0
0:3:4.654,756.255,42.7958,0,0.000885,0,0
0:3:5.655,760.25,43.0233,0,0.000885,0,0
0:3:6.663,765.944,43.3404,0,0.000885,0,0
0:3:7.656,769.173,43.5266,0,0.000885,0,0
0:3:8.648,773.866,43.7886,0,0.000885,0,0
0:3:9.651,778.27,44.0437,0,0.000885,0,0
0:3:10.661,782.789,44.2988,0,0.000885,0,0
0:3:11.661,788.074,44.5953,0,0.000885,0,0
0:3:12.653,791.534,44.7883,0,0.000885,0,0
0:3:13.646,795.293,45.0021,0,0.000885,0,0
0:3:14.636,799.519,45.2434,0,0.000885,0,0
0:3:15.647,804.683,45.533,0,0.000885,0,0
0:3:16.654,809.087,45.7881,0,0.000885,0,0
0:3:17.649,814.016,46.0639,0,0.000885,0,0
0:3:18.651,818.246,46.3052,0,0.000885,0,0
0:3:19.642,822.703,46.5534,0,0.000885,0,0
0:3:20.651,826.871,46.7947,0,0.000885,0,0
0:3:21.654,830.745,47.0085,0,0.000885,0,0
0:3:22.647,835.385,47.2705,0,0.000885,0,0
0:3:23.638,839.846,47.5256,0,0.000885,0,0
0:3:24.641,844.308,47.7807,0,0.000885,0,0
0:3:25.647,849.059,48.0496,0,0.000885,0,0
0:3:26.654,852.64,48.2495,0,0.000885,0,0
0:3:27.647,857.688,48.5322,0,0.000885,0,0
0:3:28.650,862.737,48.8218,0,0.000885,0,0
0:3:29.652,866.376,49.0286,0,0.000885,0,0
0:3:30.657,871.545,49.3182,0,0.000885,0,0
0:3:31.662,875.241,49.5319,0,0.000885,0,0
0:3:32.656,879.645,49.7801,0,0.000885,0,0
0:3:33.648,884.867,50.0766,0,0.000885,0,0
0:3:34.641,888.741,50.2904,0,0.000885,0,0
0:3:35.654,893.554,50.5661,0,0.000885,0,0
0:3:36.661,897.78,50.8075,0,0.000885,0,0
0:3:37.654,902.006,51.0419,0,0.000885,0,0
0:3:38.643,905.823,51.2625,0,0.000885,0,0
0:3:39.635,910.813,51.5383,0,0.000885,0,0
0:3:40.645,915.8,51.821,0,0.000885,0,0
0:3:41.654,919.265,52.0209,0,0.000885,0,0
0:3:42.644,924.136,52.2967,0,0.000885,0,0
0:3:43.646,928.482,52.5381,0,0.000885,0,0
0:3:44.651,932.708,52.7794,0,0.000885,0,0
0:3:45.660,937.463,53.0483,0,0.000885,0,0
0:3:46.664,941.573,53.2827,0,0.000885,0,0
0:3:47.655,946.737,53.5723,0,0.000885,0,0
0:3:48.650,950.554,53.7929,0,0.000885,0,0
0:3:49.652,954.602,54.0204,0,0.000885,0,0
0:3:50.659,958.828,54.2617,0,0.000885,0,0
0:3:51.664,963.173,54.5031,0,0.000885,0,0
0:3:52.659,968.338,54.7995,0,0.000885,0,0
0:3:53.658,971.567,54.9788,0,0.000885,0,0
0:3:54.652,975.615,55.2063,0,0.000885,0,0
0:3:55.663,980.197,55.4683,0,0.000885,0,0
0:3:56.668,980.664,55.4959,0,0.000885,0,0
0:3:57.646,856.808,48.4839,0,0.000885,0,0