File: DataFile2021-06-08_044524.csv
Test ID:,Date Tested:,Time:,Test Type:,Diameter Avg. (mm):,Cyl. Corr. Factor:,Height (mm):,Age (days):,Weight (kN):,Break Type:,Ramp Rate (MPa/s):,Load at Break (kN):,Stress at Break (MPa):
12,6/8/2021,04:45,Cylinder,100,1,200,0,3.6,3,0.24,349.27,44.47
Sample Time,Load (kN),Stress (MPa),Long. Strain,Trans. Strain,Chan1 Deflection (mm),Chan2 Deflection (mm)
0:0:15.384,5.10211,0.648107,0,0.000885,0,0
0:0:16.182,15.1907,1.93743,0,0.000885,0,0
0:0:16.973,13.9585,1.77885,0,0.000885,0,0
0:0:17.768,13.6649,1.73748,0,0.000885,0,0
0:0:18.563,13.8429,1.76506,0,0.000885,0,0
0:0:19.353,12.9621,1.64785,0,0.000885,0,0
0:0:20.157,14.1364,1.79953,0,0.000885,0,0
0:0:20.958,15.0127,1.90985,0,0.000885,0,0
0:0:21.764,16.7742,2.13737,0,0.000885,0,0
0:0:22.564,19.0606,2.42695,0,0.000885,0,0
0:0:23.359,21.1157,2.68896,0,0.000885,0,0
0:0:24.158,22.8728,2.90959,0,0.000885,0,0
0:0:24.952,23.6957,3.0199,0,0.000885,0,0
0:0:25.760,25.1591,3.20606,0,0.000885,0,0
0:0:26.570,26.9785,3.43359,0,0.000885,0,0
0:0:27.376,29.0914,3.70248,0,0.000885,0,0
0:0:28.173,30.2657,3.85417,0,0.000885,0,0
0:0:28.968,31.787,4.04722,0,0.000885,0,0
0:0:29.766,33.2549,4.23338,0,0.000885,0,0
0:0:30.561,34.8385,4.43333,0,0.000885,0,0
0:0:31.369,36.7156,4.67465,0,0.000885,0,0
0:0:32.174,37.8277,4.81944,0,0.000885,0,0
0:0:32.972,39.1799,4.9918,0,0.000885,0,0
0:0:33.767,41.4085,5.27449,0,0.000885,0,0
0:0:34.564,43.1077,5.48823,0,0.000885,0,0
0:0:35.359,44.0463,5.60544,0,0.000885,0,0
0:0:36.159,45.572,5.80539,0,0.000885,0,0
0:0:36.969,47.3914,6.03291,0,0.000885,0,0
0:0:37.769,49.6777,6.32249,0,0.000885,0,0
0:0:38.567,50.9677,6.48797,0,0.000885,0,0
0:0:39.361,51.9063,6.61207,0,0.000885,0,0
0:0:40.158,52.787,6.72239,0,0.000885,0,0
0:0:40.962,55.4827,7.06713,0,0.000885,0,0
0:0:41.770,56.8928,7.24639,0,0.000885,0,0
0:0:42.569,58.3562,7.43255,0,0.000885,0,0
0:0:43.362,60.1177,7.65318,0,0.000885,0,0
0:0:44.161,61.6435,7.84623,0,0.000885,0,0
0:0:44.953,63.1647,8.03929,0,0.000885,0,0
0:0:45.752,64.4547,8.20476,0,0.000885,0,0
0:0:46.560,66.6255,8.48055,0,0.000885,0,0
0:0:47.363,67.6841,8.61845,0,0.000885,0,0
0:0:48.159,69.1476,8.80461,0,0.000885,0,0
0:0:48.952,71.4384,9.09418,0,0.000885,0,0
0:0:49.761,72.8441,9.27345,0,0.000885,0,0
0:0:50.554,74.0762,9.43203,0,0.000885,0,0
0:0:51.363,76.069,9.68713,0,0.000885,0,0
0:0:52.169,77.5948,9.88019,0,0.000885,0,0
0:0:52.966,78.9426,10.0526,0,0.000885,0,0
0:0:53.760,80.3527,10.2318,0,0.000885,0,0
0:0:54.557,82.3455,10.4869,0,0.000885,0,0
0:0:55.360,83.6355,10.6455,0,0.000885,0,0
0:0:56.158,84.9254,10.811,0,0.000885,0,0
0:0:56.967,86.7448,11.0454,0,0.000885,0,0
0:0:57.767,88.2082,11.2316,0,0.000885,0,0
0:0:58.565,90.5569,11.528,0,0.000885,0,0
0:0:59.357,90.8505,11.5694,0,0.000885,0,0
0:1:0.158,93.1947,11.8659,0,0.000885,0,0
0:1:0.960,94.4268,12.0245,0,0.000885,0,0
0:1:1.768,96.5976,12.3002,0,0.000885,0,0
0:1:2.565,96.8912,12.3347,0,0.000885,0,0
0:1:3.360,99.7069,12.6932,0,0.000885,0,0
0:1:4.158,101.29,12.8932,0,0.000885,0,0
0:1:4.958,102.051,12.9966,0,0.000885,0,0
0:1:5.757,103.928,13.231,0,0.000885,0,0
0:1:6.567,105.512,13.431,0,0.000885,0,0
0:1:7.372,107.273,13.6585,0,0.000885,0,0
0:1:8.166,109.03,13.8791,0,0.000885,0,0
0:1:8.960,110.089,14.017,0,0.000885,0,0
0:1:9.757,111.259,14.1687,0,0.000885,0,0
0:1:10.562,113.372,14.4376,0,0.000885,0,0
0:1:11.368,115.013,14.6445,0,0.000885,0,0
0:1:12.173,116.245,14.803,0,0.000885,0,0
0:1:12.976,118.238,15.0581,0,0.000885,0,0
0:1:13.770,120.702,15.3684,0,0.000885,0,0
0:1:14.565,121.463,15.4649,0,0.000885,0,0
0:1:15.359,122.58,15.6097,0,0.000885,0,0
0:1:16.159,124.105,15.8028,0,0.000885,0,0
0:1:16.967,125.044,15.92,0,0.000885,0,0
0:1:17.769,127.797,16.2716,0,0.000885,0,0
0:1:18.567,129.443,16.4785,0,0.000885,0,0
0:1:19.361,131.2,16.706,0,0.000885,0,0
0:1:20.158,132.49,16.8715,0,0.000885,0,0
0:1:20.962,133.487,16.9956,0,0.000885,0,0
0:1:21.769,135.133,17.2024,0,0.000885,0,0
0:1:22.568,138.064,17.5816,0,0.000885,0,0
0:1:23.360,138.237,17.6023,0,0.000885,0,0
0:1:24.158,139.705,17.7885,0,0.000885,0,0
0:1:24.962,142.227,18.1056,0,0.000885,0,0
0:1:25.761,143.282,18.2435,0,0.000885,0,0
0:1:26.570,144.985,18.4573,0,0.000885,0,0
0:1:27.371,146.92,18.7055,0,0.000885,0,0
0:1:28.169,147.681,18.802,0,0.000885,0,0
0:1:28.961,149.091,18.9813,0,0.000885,0,0
0:1:29.760,150.612,19.1743,0,0.000885,0,0
0:1:30.564,152.61,19.4294,0,0.000885,0,0
0:1:31.374,154.78,19.7052,0,0.000885,0,0
0:1:32.180,157.24,20.0224,0,0.000885,0,0
0:1:32.971,157.596,20.0637,0,0.000885,0,0
0:1:33.771,158.886,20.2292,0,0.000885,0,0
0:1:34.563,160.056,20.3809,0,0.000885,0,0
0:1:35.361,162.169,20.6498,0,0.000885,0,0
0:1:36.165,163.695,20.8429,0,0.000885,0,0
0:1:36.972,165.63,21.0911,0,0.000885,0,0
0:1:37.773,166.39,21.1876,0,0.000885,0,0
0:1:38.566,168.032,21.3944,0,0.000885,0,0
0:1:39.365,169.793,21.622,0,0.000885,0,0
0:1:40.159,171.492,21.8357,0,0.000885,0,0
0:1:40.968,173.957,22.146,0,0.000885,0,0
0:1:41.777,174.192,22.1804,0,0.000885,0,0
0:1:42.577,176.127,22.4286,0,0.000885,0,0
0:1:43.374,177.711,22.6286,0,0.000885,0,0
0:1:44.167,179.41,22.8423,0,0.000885,0,0
0:1:44.967,180.936,23.0354,0,0.000885,0,0
0:1:45.759,182.519,23.2422,0,0.000885,0,0
0:1:46.569,183.636,23.3801,0,0.000885,0,0
0:1:47.375,185.571,23.6283,0,0.000885,0,0
0:1:48.171,187.679,23.8972,0,0.000885,0,0
0:1:48.967,188.68,24.0213,0,0.000885,0,0
0:1:49.761,190.322,24.2351,0,0.000885,0,0
0:1:50.559,191.847,24.4281,0,0.000885,0,0
0:1:51.366,193.369,24.6212,0,0.000885,0,0
0:1:52.165,195.424,24.8832,0,0.000885,0,0
0:1:52.963,196.127,24.9728,0,0.000885,0,0
0:1:53.764,198.764,25.3107,0,0.000885,0,0
0:1:54.550,200.059,25.4692,0,0.000885,0,0
0:1:55.351,200.704,25.552,0,0.000885,0,0
0:1:56.149,202.99,25.8484,0,0.000885,0,0
0:1:56.952,204.983,26.0967,0,0.000885,0,0
0:1:57.755,206.099,26.2414,0,0.000885,0,0
0:1:58.562,208.328,26.5241,0,0.000885,0,0
0:1:59.365,209.146,26.6276,0,0.000885,0,0
0:2:0.160,210.614,26.8137,0,0.000885,0,0
0:2:0.953,212.256,27.0274,0,0.000885,0,0
0:2:1.760,213.839,27.2274,0,0.000885,0,0
0:2:2.566,215.659,27.4618,0,0.000885,0,0
0:2:3.365,216.891,27.6135,0,0.000885,0,0
0:2:4.152,218.354,27.7997,0,0.000885,0,0
0:2:4.953,220.231,28.041,0,0.000885,0,0
0:2:5.759,221.815,28.2409,0,0.000885,0,0
0:2:6.564,223.577,28.4685,0,0.000885,0,0
0:2:7.367,225.04,28.6546,0,0.000885,0,0
0:2:8.159,226.859,28.8821,0,0.000885,0,0
0:2:8.945,228.679,29.1166,0,0.000885,0,0
0:2:9.766,229.439,29.2131,0,0.000885,0,0
0:2:10.565,230.907,29.3992,0,0.000885,0,0
0:2:11.370,232.491,29.5992,0,0.000885,0,0
0:2:12.172,234.132,29.8129,0,0.000885,0,0
0:2:12.960,235.658,30.006,0,0.000885,0,0
0:2:13.751,237.299,30.2128,0,0.000885,0,0
0:2:14.556,238.647,30.3852,0,0.000885,0,0
0:2:15.369,240.293,30.592,0,0.000885,0,0
0:2:16.167,241.814,30.792,0,0.000885,0,0
0:2:16.968,243.576,31.0126,0,0.000885,0,0
0:2:17.761,245.569,31.2677,0,0.000885,0,0
0:2:18.548,246.685,31.4056,0,0.000885,0,0
0:2:19.348,248.148,31.5987,0,0.000885,0,0
0:2:20.166,249.674,31.7917,0,0.000885,0,0
0:2:20.961,251.494,32.0193,0,0.000885,0,0
0:2:21.766,253.313,32.2537,0,0.000885,0,0
0:2:22.565,254.834,32.4467,0,0.000885,0,0
0:2:23.361,256.48,32.6536,0,0.000885,0,0
0:2:24.162,257.77,32.819,0,0.000885,0,0
0:2:24.950,259.06,32.9845,0,0.000885,0,0
0:2:25.754,261.289,33.2672,0,0.000885,0,0
0:2:26.558,262.463,33.4189,0,0.000885,0,0
0:2:27.362,264.398,33.6671,0,0.000885,0,0
0:2:28.166,265.63,33.8188,0,0.000885,0,0
0:2:28.962,266.8,33.9705,0,0.000885,0,0
0:2:29.764,269.38,34.3014,0,0.000885,0,0
0:2:30.559,270.261,34.4117,0,0.000885,0,0
0:2:31.366,271.608,34.5841,0,0.000885,0,0
0:2:32.166,273.312,34.7978,0,0.000885,0,0
0:2:32.955,275.305,35.0529,0,0.000885,0,0
0:2:33.755,276.831,35.246,0,0.000885,0,0
0:2:34.564,278.356,35.4391,0,0.000885,0,0
0:2:35.366,279.762,35.6183,0,0.000885,0,0
0:2:36.162,281.639,35.8596,0,0.000885,0,0
0:2:36.965,283.107,36.0458,0,0.000885,0,0
0:2:37.768,284.339,36.2044,0,0.000885,0,0
0:2:38.559,286.448,36.4733,0,0.000885,0,0
0:2:39.356,287.155,36.5629,0,0.000885,0,0
0:2:40.157,289.321,36.8387,0,0.000885,0,0
0:2:40.969,290.673,37.0111,0,0.000885,0,0
0:2:41.769,292.488,37.2386,0,0.000885,0,0
0:2:42.564,294.308,37.473,0,0.000885,0,0
0:2:43.369,295.131,37.5764,0,0.000885,0,0
0:2:44.164,297.475,37.8729,0,0.000885,0,0
0:2:44.960,299.116,38.0866,0,0.000885,0,0
0:2:45.765,300.7,38.2866,0,0.000885,0,0
0:2:46.569,301.287,38.3624,0,0.000885,0,0
0:2:47.364,303.342,38.6244,0,0.000885,0,0
0:2:48.164,304.805,38.8106,0,0.000885,0,0
0:2:48.959,306.803,39.0657,0,0.000885,0,0
0:2:49.764,308.386,39.2656,0,0.000885,0,0
0:2:50.549,309.556,39.4173,0,0.000885,0,0
0:2:51.355,310.846,39.5759,0,0.000885,0,0
0:2:52.157,312.781,39.8241,0,0.000885,0,0
0:2:52.967,314.307,40.0172,0,0.000885,0,0
0:2:53.759,316.184,40.2585,0,0.000885,0,0
0:2:54.566,317.301,40.3964,0,0.000885,0,0
0:2:55.370,319.76,40.7135,0,0.000885,0,0
0:2:56.168,320.583,40.817,0,0.000885,0,0
0:2:56.969,322.225,41.0238,0,0.000885,0,0
0:2:57.761,323.399,41.1755,0,0.000885,0,0
0:2:58.572,325.04,41.3823,0,0.000885,0,0
0:2:59.366,326.802,41.6099,0,0.000885,0,0
0:3:0.161,328.208,41.7891,0,0.000885,0,0
0:3:0.954,330.143,42.0373,0,0.000885,0,0
0:3:1.758,331.726,42.2373,0,0.000885,0,0
0:3:2.559,333.488,42.4579,0,0.000885,0,0
0:3:3.349,334.778,42.6234,0,0.000885,0,0
0:3:4.158,336.655,42.8647,0,0.000885,0,0
0:3:4.958,337.825,43.0164,0,0.000885,0,0
0:3:5.769,338.883,43.1474,0,0.000885,0,0
0:3:6.572,341.112,43.4301,0,0.000885,0,0
0:3:7.366,341.815,43.5197,0,0.000885,0,0
0:3:8.166,343.634,43.7541,0,0.000885,0,0
0:3:8.967,344.924,43.9196,0,0.000885,0,0
0:3:9.766,346.508,44.1196,0,0.000885,0,0
0:3:10.556,347.446,44.2368,0,0.000885,0,0
0:3:11.361,348.5,44.3747,0,0.000885,0,0
0:3:12.161,349.265,44.4712,0,0.000885,0,0
0:3:12.959,348.327,44.3471,0,0.000885,0,0
0:3:13.758,342.753,43.6438,0,0.000885,0,0
0:3:14.567,288.618,36.7491,0,0.000885,0,0
0:3:14.686,288.618,36.7491,0,0.000885,0,0