File: DataFile2021-06-29_043618.csv
Test ID:,Date Tested:,Time:,Test Type:,Width (mm):,Depth (mm):,Height (mm):,Age (days):,Weight (kN):,Ramp Rate (MPa/s):,Load at Break (kN):,Stress at Break (MPa):
12,6/29/2021,04:36,Cube,150,150,150,7,8.37,0.02,80.47,3.58
Sample Time,Load (kN),Stress (MPa),Long. Strain,Trans. Strain,Chan1 Deflection (mm),Chan2 Deflection (mm)
0:0:10.176,9.5014,0.42058,0,0.000885,0,0
0:0:10.665,12.6107,0.558475,0,0.000885,0,0
0:0:11.164,12.3171,0.544686,0,0.000885,0,0
0:0:11.671,11.9657,0.530896,0,0.000885,0,0
0:0:12.171,12.1392,0.537791,0,0.000885,0,0
0:0:12.662,12.9621,0.57916,0,0.000885,0,0
0:0:13.169,13.7228,0.606739,0,0.000885,0,0
0:0:13.669,16.1871,0.717055,0,0.000885,0,0
0:0:14.169,17.7128,0.786002,0,0.000885,0,0
0:0:14.669,18.767,0.834266,0,0.000885,0,0
0:0:15.168,20.235,0.896318,0,0.000885,0,0
0:0:15.659,21.9342,0.972161,0,0.000885,0,0
0:0:16.160,23.2864,1.03421,0,0.000885,0,0
0:0:16.657,24.3985,1.08248,0,0.000885,0,0
0:0:17.164,25.8664,1.15142,0,0.000885,0,0
0:0:17.664,26.9206,1.19969,0,0.000885,0,0
0:0:18.164,27.8592,1.24106,0,0.000885,0,0
0:0:18.665,28.3263,1.26174,0,0.000885,0,0
0:0:19.165,29.207,1.29621,0,0.000885,0,0
0:0:19.665,30.0878,1.33758,0,0.000885,0,0
0:0:20.164,31.3778,1.39274,0,0.000885,0,0
0:0:20.665,32.3742,1.441,0,0.000885,0,0
0:0:21.164,33.6641,1.49616,0,0.000885,0,0
0:0:21.660,34.6605,1.53753,0,0.000885,0,0
0:0:22.168,36.0706,1.60648,0,0.000885,0,0
0:0:22.668,37.4184,1.66164,0,0.000885,0,0
0:0:23.158,38.9442,1.73058,0,0.000885,0,0
0:0:23.670,39.7671,1.76506,0,0.000885,0,0
0:0:24.171,41.0571,1.82711,0,0.000885,0,0
0:0:24.670,42.0535,1.86848,0,0.000885,0,0
0:0:25.158,42.9921,1.90985,0,0.000885,0,0
0:0:25.671,44.2242,1.96501,0,0.000885,0,0
0:0:26.172,44.9849,1.99948,0,0.000885,0,0
0:0:26.669,46.0391,2.04774,0,0.000885,0,0
0:0:27.165,47.3291,2.1029,0,0.000885,0,0
0:0:27.665,48.0942,2.13737,0,0.000885,0,0
0:0:28.165,49.3263,2.19253,0,0.000885,0,0
0:0:28.665,50.4962,2.24769,0,0.000885,0,0
0:0:29.164,51.5549,2.28906,0,0.000885,0,0
0:0:29.666,53.1963,2.3649,0,0.000885,0,0
0:0:30.161,54.4863,2.42006,0,0.000885,0,0
0:0:30.664,55.367,2.46143,0,0.000885,0,0
0:0:31.160,56.7148,2.52348,0,0.000885,0,0
0:0:31.659,57.4176,2.55106,0,0.000885,0,0
0:0:32.168,58.8856,2.62001,0,0.000885,0,0
0:0:32.668,59.8241,2.66138,0,0.000885,0,0
0:0:33.169,60.7627,2.70274,0,0.000885,0,0
0:0:33.669,62.0527,2.7579,0,0.000885,0,0
0:0:34.168,63.2848,2.81306,0,0.000885,0,0
0:0:34.668,64.8106,2.88201,0,0.000885,0,0
0:0:35.167,65.6291,2.91648,0,0.000885,0,0
0:0:35.667,66.6255,2.95785,0,0.000885,0,0
0:0:36.162,68.0934,3.0268,0,0.000885,0,0
0:0:36.658,68.9163,3.06127,0,0.000885,0,0
0:0:37.170,69.6769,3.09575,0,0.000885,0,0
0:0:37.668,70.4376,3.13022,0,0.000885,0,0
0:0:38.169,71.3762,3.17159,0,0.000885,0,0
0:0:38.668,72.9019,3.24054,0,0.000885,0,0
0:0:39.169,73.667,3.27501,0,0.000885,0,0
0:0:39.669,74.7212,3.32327,0,0.000885,0,0
0:0:40.170,75.8956,3.37154,0,0.000885,0,0
0:0:40.662,76.714,3.4129,0,0.000885,0,0
0:0:41.166,78.3554,3.48185,0,0.000885,0,0
0:0:41.659,79.7077,3.54391,0,0.000885,0,0
0:0:42.165,79.8812,3.5508,0,0.000885,0,0
0:0:42.673,80.2904,3.57148,0,0.000885,0,0
0:0:43.161,80.2904,3.57148,0,0.000885,0,0
0:0:43.661,80.2326,3.56459,0,0.000885,0,0
0:0:44.172,77.0076,3.4198,0,0.000885,0,0
0:0:44.670,74.1919,3.29569,0,0.000885,0,0
0:0:45.170,72.7863,3.23364,0,0.000885,0,0
0:0:45.669,71.9633,3.19917,0,0.000885,0,0
0:0:46.169,70.6155,3.13711,0,0.000885,0,0
0:0:46.661,69.2677,3.07506,0,0.000885,0,0
0:0:47.155,68.4448,3.04059,0,0.000885,0,0
0:0:47.668,67.2126,2.98543,0,0.000885,0,0
0:0:48.163,63.9298,2.84064,0,0.000885,0,0
0:0:48.661,61.1141,2.71653,0,0.000885,0,0
0:0:49.172,58.6498,2.60622,0,0.000885,0,0
0:0:49.672,56.012,2.48901,0,0.000885,0,0
0:0:50.169,54.8955,2.44074,0,0.000885,0,0
0:0:50.669,54.8377,2.43385,0,0.000885,0,0
0:0:51.163,54.3706,2.41317,0,0.000885,0,0
0:0:51.659,54.8377,2.43385,0,0.000885,0,0
0:0:52.155,54.2505,2.41317,0,0.000885,0,0
0:0:52.663,54.0192,2.39938,0,0.000885,0,0
0:0:53.173,53.5477,2.37869,0,0.000885,0,0
0:0:53.671,53.0806,2.35801,0,0.000885,0,0
0:0:54.170,52.8449,2.35111,0,0.000885,0,0
0:0:54.669,52.9027,2.35111,0,0.000885,0,0
0:0:55.175,52.9027,2.35111,0,0.000885,0,0
0:0:55.672,53.0184,2.35801,0,0.000885,0,0
0:0:56.171,52.6669,2.34422,0,0.000885,0,0
0:0:56.663,52.6669,2.34422,0,0.000885,0,0
0:0:57.176,52.6669,2.34422,0,0.000885,0,0
0:0:57.674,52.787,2.34422,0,0.000885,0,0
0:0:58.174,52.6669,2.34422,0,0.000885,0,0
0:0:58.671,52.6669,2.34422,0,0.000885,0,0
0:0:59.172,52.4935,2.33043,0,0.000885,0,0
0:0:59.670,52.6669,2.34422,0,0.000885,0,0
0:1:0.169,52.6669,2.34422,0,0.000885,0,0
0:1:0.671,52.7248,2.34422,0,0.000885,0,0
0:1:1.170,52.9027,2.35111,0,0.000885,0,0
0:1:1.664,52.9605,2.35111,0,0.000885,0,0
0:1:2.169,52.4935,2.33043,0,0.000885,0,0
0:1:2.670,53.1963,2.3649,0,0.000885,0,0
0:1:3.165,53.0184,2.35801,0,0.000885,0,0
0:1:3.665,53.6633,2.38559,0,0.000885,0,0
0:1:4.174,53.5477,2.37869,0,0.000885,0,0
0:1:4.672,53.6633,2.38559,0,0.000885,0,0
0:1:5.170,53.8413,2.39248,0,0.000885,0,0
0:1:5.670,54.3083,2.41317,0,0.000885,0,0
0:1:6.169,54.4284,2.42006,0,0.000885,0,0
0:1:6.663,54.722,2.43385,0,0.000885,0,0
0:1:7.158,54.722,2.43385,0,0.000885,0,0
0:1:7.677,54.8377,2.43385,0,0.000885,0,0
0:1:8.176,55.367,2.46143,0,0.000885,0,0
0:1:8.675,55.6028,2.46832,0,0.000885,0,0
0:1:9.173,55.4248,2.46143,0,0.000885,0,0
0:1:9.672,55.4248,2.46143,0,0.000885,0,0
0:1:10.170,55.7184,2.47522,0,0.000885,0,0
0:1:10.669,55.367,2.46143,0,0.000885,0,0
0:1:11.164,55.6606,2.47522,0,0.000885,0,0
0:1:11.659,56.1277,2.4959,0,0.000885,0,0
0:1:12.171,55.8919,2.48211,0,0.000885,0,0
0:1:12.670,55.7184,2.47522,0,0.000885,0,0
0:1:13.178,56.012,2.48901,0,0.000885,0,0
0:1:13.677,56.0698,2.48901,0,0.000885,0,0
0:1:14.175,55.8341,2.48211,0,0.000885,0,0
0:1:14.673,56.0698,2.48901,0,0.000885,0,0
0:1:15.172,55.5405,2.46832,0,0.000885,0,0
0:1:15.671,55.4827,2.46832,0,0.000885,0,0
0:1:16.165,55.3092,2.46143,0,0.000885,0,0
0:1:16.661,55.3092,2.46143,0,0.000885,0,0
0:1:17.173,55.367,2.46143,0,0.000885,0,0
0:1:17.672,55.2469,2.45453,0,0.000885,0,0
0:1:18.171,55.8919,2.48211,0,0.000885,0,0
0:1:18.670,55.6606,2.47522,0,0.000885,0,0
0:1:19.177,55.6606,2.47522,0,0.000885,0,0
0:1:19.675,55.6028,2.46832,0,0.000885,0,0
0:1:20.175,55.7763,2.48211,0,0.000885,0,0
0:1:20.670,55.8341,2.48211,0,0.000885,0,0
0:1:21.164,56.012,2.48901,0,0.000885,0,0
0:1:21.661,56.1277,2.4959,0,0.000885,0,0
0:1:22.163,56.1277,2.4959,0,0.000885,0,0
0:1:22.674,56.2478,2.5028,0,0.000885,0,0
0:1:23.171,56.3634,2.5028,0,0.000885,0,0
0:1:23.672,56.5369,2.50969,0,0.000885,0,0
0:1:24.170,56.5369,2.50969,0,0.000885,0,0
0:1:24.678,56.4791,2.50969,0,0.000885,0,0
0:1:25.176,56.5992,2.51659,0,0.000885,0,0
0:1:25.666,56.4212,2.50969,0,0.000885,0,0
0:1:26.170,56.657,2.51659,0,0.000885,0,0
0:1:26.662,56.7727,2.52348,0,0.000885,0,0
0:1:27.166,56.8305,2.52348,0,0.000885,0,0
0:1:27.675,57.0084,2.53038,0,0.000885,0,0
0:1:28.175,56.7148,2.52348,0,0.000885,0,0
0:1:28.674,57.0084,2.53038,0,0.000885,0,0
0:1:29.174,56.9506,2.53038,0,0.000885,0,0
0:1:29.672,56.7727,2.52348,0,0.000885,0,0
0:1:30.171,56.9506,2.53038,0,0.000885,0,0
0:1:30.667,56.7727,2.52348,0,0.000885,0,0
0:1:31.167,57.0662,2.53727,0,0.000885,0,0
0:1:31.662,57.1241,2.53727,0,0.000885,0,0
0:1:32.158,57.0662,2.53727,0,0.000885,0,0
0:1:32.665,57.2442,2.54417,0,0.000885,0,0
0:1:33.178,57.4176,2.55106,0,0.000885,0,0
0:1:33.675,57.2442,2.54417,0,0.000885,0,0
0:1:34.173,57.5377,2.55795,0,0.000885,0,0
0:1:34.672,58.0626,2.57864,0,0.000885,0,0
0:1:35.171,58.0048,2.57864,0,0.000885,0,0
0:1:35.679,58.2984,2.59243,0,0.000885,0,0
0:1:36.179,57.947,2.57864,0,0.000885,0,0
0:1:36.675,58.1205,2.58553,0,0.000885,0,0
0:1:37.166,58.1205,2.58553,0,0.000885,0,0
0:1:37.678,58.0048,2.57864,0,0.000885,0,0
0:1:38.175,58.0048,2.57864,0,0.000885,0,0
0:1:38.673,58.592,2.60622,0,0.000885,0,0
0:1:39.173,58.414,2.59932,0,0.000885,0,0
0:1:39.672,57.947,2.57864,0,0.000885,0,0
0:1:40.179,57.7112,2.56485,0,0.000885,0,0
0:1:40.666,58.2984,2.59243,0,0.000885,0,0
0:1:41.165,58.1827,2.58553,0,0.000885,0,0
0:1:41.661,58.414,2.59932,0,0.000885,0,0
0:1:42.165,58.592,2.60622,0,0.000885,0,0
0:1:42.665,58.1205,2.58553,0,0.000885,0,0
0:1:43.174,58.6498,2.60622,0,0.000885,0,0
0:1:43.672,58.4763,2.59932,0,0.000885,0,0
0:1:44.168,58.592,2.60622,0,0.000885,0,0
0:1:44.666,58.4763,2.59932,0,0.000885,0,0
0:1:45.178,58.7699,2.61311,0,0.000885,0,0
0:1:45.676,58.592,2.60622,0,0.000885,0,0
0:1:46.173,58.5341,2.59932,0,0.000885,0,0
0:1:46.666,58.3562,2.59243,0,0.000885,0,0
0:1:47.176,58.6498,2.60622,0,0.000885,0,0
0:1:47.674,58.8856,2.62001,0,0.000885,0,0
0:1:48.175,58.7699,2.61311,0,0.000885,0,0
0:1:48.674,58.592,2.60622,0,0.000885,0,0
0:1:49.173,58.8856,2.62001,0,0.000885,0,0
0:1:49.680,58.6498,2.60622,0,0.000885,0,0
0:1:50.180,58.592,2.60622,0,0.000885,0,0
0:1:50.670,58.592,2.60622,0,0.000885,0,0
0:1:51.169,58.592,2.60622,0,0.000885,0,0
0:1:51.665,58.4763,2.59932,0,0.000885,0,0
0:1:52.169,58.3562,2.59243,0,0.000885,0,0
0:1:52.679,58.3562,2.59243,0,0.000885,0,0
0:1:53.165,58.2406,2.58553,0,0.000885,0,0
0:1:53.664,58.0626,2.57864,0,0.000885,0,0
0:1:54.174,57.7691,2.56485,0,0.000885,0,0
0:1:54.673,57.4176,2.55106,0,0.000885,0,0
0:1:55.181,57.2442,2.54417,0,0.000885,0,0
0:1:55.679,56.3056,2.5028,0,0.000885,0,0
0:1:56.179,54.7798,2.43385,0,0.000885,0,0
0:1:56.674,53.7256,2.38559,0,0.000885,0,0
0:1:57.166,51.2035,2.27527,0,0.000885,0,0
0:1:57.679,50.087,2.22701,0,0.000885,0,0
0:1:58.177,49.5576,2.19943,0,0.000885,0,0
0:1:58.675,48.797,2.17185,0,0.000885,0,0
0:1:59.174,48.2677,2.14427,0,0.000885,0,0
0:1:59.669,48.0942,2.13737,0,0.000885,0,0
0:2:0.168,47.5648,2.11669,0,0.000885,0,0
0:2:0.488,45.4519,2.02016,0,0.000885,0,0