File: DataFile2021-07-15_074907.csv
Test ID:,Date Tested:,Time:,Test Type:,Diameter Avg. (mm):,Cyl. Corr. Factor:,Height (mm):,Age (days):,Weight (kN):,Break Type:,Ramp Rate (MPa/s):,Load at Break (kN):,Stress at Break (MPa):
12,7/15/2021,07:49,Cylinder,100,1,200,0,3.6,3,0.25,1564.35,199.18
Sample Time,Load (kN),Stress (MPa),Long. Strain,Trans. Strain,Chan1 Deflection (mm),Chan2 Deflection (mm)
0:0:5.892,6.09851,0.779108,0,0.000885,0,0
0:0:9.300,11.3207,1.441,0,0.000885,0,0
0:0:12.723,18.3578,2.33732,0,0.000885,0,0
0:0:16.108,25.1013,3.19917,0,0.000885,0,0
0:0:19.515,32.2007,4.10238,0,0.000885,0,0
0:0:22.925,38.8864,4.95044,0,0.000885,0,0
0:0:26.310,45.2206,5.75712,0,0.000885,0,0
0:0:29.714,52.1421,6.63965,0,0.000885,0,0
0:0:33.133,58.8856,7.4946,0,0.000885,0,0
0:0:36.529,65.2777,8.30818,0,0.000885,0,0
0:0:39.925,71.9633,9.16313,0,0.000885,0,0
0:0:43.337,79.0004,10.0595,0,0.000885,0,0
0:0:46.724,85.397,10.873,0,0.000885,0,0
0:0:50.123,92.434,11.7694,0,0.000885,0,0
0:0:53.530,98.5904,12.5554,0,0.000885,0,0
0:0:56.928,105.276,13.4034,0,0.000885,0,0
0:1:0.317,111.788,14.2308,0,0.000885,0,0
0:1:3.729,118.825,15.1271,0,0.000885,0,0
0:1:7.124,125.689,16.0027,0,0.000885,0,0
0:1:10.520,132.197,16.8301,0,0.000885,0,0
0:1:13.925,138.651,17.6506,0,0.000885,0,0
0:1:17.329,145.982,18.5883,0,0.000885,0,0
0:1:20.717,152.258,19.3881,0,0.000885,0,0
0:1:24.127,158.53,20.1878,0,0.000885,0,0
0:1:27.528,165.278,21.0428,0,0.000885,0,0
0:1:30.913,172.431,21.9529,0,0.000885,0,0
0:1:34.325,179.294,22.8285,0,0.000885,0,0
0:1:37.739,185.513,23.6214,0,0.000885,0,0
0:1:41.121,192.079,24.4557,0,0.000885,0,0
0:1:44.518,199.236,25.3658,0,0.000885,0,0
0:1:47.917,205.806,26.207,0,0.000885,0,0
0:1:51.315,212.256,27.0274,0,0.000885,0,0
0:1:54.714,218.999,27.8824,0,0.000885,0,0
0:1:58.125,225.921,28.7649,0,0.000885,0,0
0:2:1.522,232.606,29.6199,0,0.000885,0,0
0:2:4.920,239.119,30.4472,0,0.000885,0,0
0:2:8.323,244.924,31.185,0,0.000885,0,0
0:2:11.723,252.254,32.1158,0,0.000885,0,0
0:2:15.123,259.411,33.0259,0,0.000885,0,0
0:2:18.522,265.861,33.8533,0,0.000885,0,0
0:2:21.926,272.138,34.6531,0,0.000885,0,0
0:2:25.326,279.468,35.5838,0,0.000885,0,0
0:2:28.725,285.745,36.3836,0,0.000885,0,0
0:2:32.129,292.079,37.1903,0,0.000885,0,0
0:2:35.525,298.529,38.0108,0,0.000885,0,0
0:2:38.924,305.628,38.914,0,0.000885,0,0
0:2:42.330,311.669,39.6862,0,0.000885,0,0
0:2:45.722,318.822,40.5963,0,0.000885,0,0
0:2:49.121,325.979,41.5064,0,0.000885,0,0
0:2:52.537,333.074,42.4097,0,0.000885,0,0
0:2:55.928,339.408,43.2163,0,0.000885,0,0
0:2:59.330,345.863,44.0368,0,0.000885,0,0
0:3:2.729,352.606,44.8987,0,0.000885,0,0
0:3:6.125,358.589,45.6571,0,0.000885,0,0
0:3:9.526,365.92,46.5879,0,0.000885,0,0
0:3:12.924,372.374,47.4152,0,0.000885,0,0
0:3:16.320,379.705,48.346,0,0.000885,0,0
0:3:19.729,385.274,49.0562,0,0.000885,0,0
0:3:23.138,393.076,50.049,0,0.000885,0,0
0:3:26.524,399.526,50.8695,0,0.000885,0,0
0:3:29.930,406.096,51.7038,0,0.000885,0,0
0:3:33.334,412.724,52.5518,0,0.000885,0,0
0:3:36.726,419.587,53.4206,0,0.000885,0,0
0:3:40.134,425.859,54.2204,0,0.000885,0,0
0:3:43.529,433.252,55.165,0,0.000885,0,0
0:3:46.929,438.822,55.8751,0,0.000885,0,0
0:3:50.331,445.507,56.7232,0,0.000885,0,0
0:3:53.730,452.429,57.6057,0,0.000885,0,0
0:3:57.137,459.937,58.5641,0,0.000885,0,0
0:4:0.535,466.387,59.3845,0,0.000885,0,0
0:4:3.932,473.251,60.2533,0,0.000885,0,0
0:4:7.336,478.998,60.991,0,0.000885,0,0
0:4:10.735,486.506,61.9425,0,0.000885,0,0
0:4:14.133,492.721,62.7354,0,0.000885,0,0
0:4:17.539,499.878,63.6455,0,0.000885,0,0
0:4:20.935,506.039,64.4315,0,0.000885,0,0
0:4:24.337,513.018,65.3209,0,0.000885,0,0
0:4:27.739,519.352,66.1276,0,0.000885,0,0
0:4:31.139,525.451,66.8998,0,0.000885,0,0
0:4:34.535,533.017,67.8651,0,0.000885,0,0
0:4:37.939,539.116,68.6442,0,0.000885,0,0
0:4:41.339,545.45,69.4509,0,0.000885,0,0
0:4:44.737,552.193,70.3058,0,0.000885,0,0
0:4:48.133,558.763,71.147,0,0.000885,0,0
0:4:51.533,566.623,72.1467,0,0.000885,0,0
0:4:54.937,572.838,72.9327,0,0.000885,0,0
0:4:58.330,579.759,73.8153,0,0.000885,0,0
0:5:1.726,585.212,74.5116,0,0.000885,0,0
0:5:5.134,592.605,75.4562,0,0.000885,0,0
0:5:8.539,599.651,76.3525,0,0.000885,0,0
0:5:11.944,606.226,77.1868,0,0.000885,0,0
0:5:15.338,612.858,78.0349,0,0.000885,0,0
0:5:18.742,618.788,78.7864,0,0.000885,0,0
0:5:22.145,626.123,79.7241,0,0.000885,0,0
0:5:25.541,633.52,80.6618,0,0.000885,0,0
0:5:28.945,639.801,81.4616,0,0.000885,0,0
0:5:32.344,646.082,82.2613,0,0.000885,0,0
0:5:35.728,652.305,83.0542,0,0.000885,0,0
0:5:39.138,659.702,83.9988,0,0.000885,0,0
0:5:42.555,666.45,84.8538,0,0.000885,0,0
0:5:45.934,672.38,85.6122,0,0.000885,0,0
0:5:49.344,680.009,86.5844,0,0.000885,0,0
0:5:52.756,686.819,87.4462,0,0.000885,0,0
0:5:56.140,692.455,88.1633,0,0.000885,0,0
0:5:59.536,700.026,89.1285,0,0.000885,0,0
0:6:2.952,706.369,89.9352,0,0.000885,0,0
0:6:6.334,712.587,90.7281,0,0.000885,0,0
0:6:9.728,719.575,91.6175,0,0.000885,0,0
0:6:13.149,726.559,92.507,0,0.000885,0,0
0:6:16.557,732.956,93.3205,0,0.000885,0,0
0:6:19.944,739.472,94.1548,0,0.000885,0,0
0:6:23.356,746.047,94.9891,0,0.000885,0,0
0:6:26.748,753.444,95.9337,0,0.000885,0,0
0:6:30.147,759.667,96.7265,0,0.000885,0,0
0:6:33.556,766.122,97.547,0,0.000885,0,0
0:6:36.951,773.105,98.4364,0,0.000885,0,0
0:6:40.332,779.973,99.3121,0,0.000885,0,0
0:6:43.748,786.432,100.133,0,0.000885,0,0
0:6:47.149,793.122,100.981,0,0.000885,0,0
0:6:50.542,800.284,101.898,0,0.000885,0,0
0:6:53.949,806.507,102.691,0,0.000885,0,0
0:6:57.343,813.491,103.58,0,0.000885,0,0
0:7:0.732,819.834,104.387,0,0.000885,0,0
0:7:4.141,826.288,105.207,0,0.000885,0,0
0:7:7.566,833.214,106.09,0,0.000885,0,0
0:7:10.941,839.144,106.841,0,0.000885,0,0
0:7:14.344,846.305,107.758,0,0.000885,0,0
0:7:17.751,852.938,108.599,0,0.000885,0,0
0:7:21.131,859.926,109.489,0,0.000885,0,0
0:7:24.534,866.496,110.323,0,0.000885,0,0
0:7:27.961,873.484,111.212,0,0.000885,0,0
0:7:31.359,880.058,112.054,0,0.000885,0,0
0:7:34.754,886.633,112.888,0,0.000885,0,0
0:7:38.164,893.323,113.743,0,0.000885,0,0
0:7:41.552,899.782,114.563,0,0.000885,0,0
0:7:44.942,906.294,115.391,0,0.000885,0,0
0:7:48.355,913.456,116.308,0,0.000885,0,0
0:7:51.754,920.088,117.149,0,0.000885,0,0
0:7:55.156,926.311,117.942,0,0.000885,0,0
0:7:58.562,932.943,118.783,0,0.000885,0,0
0:8:1.960,939.989,119.686,0,0.000885,0,0
0:8:5.340,946.212,120.472,0,0.000885,0,0
0:8:8.758,953.899,121.451,0,0.000885,0,0
0:8:12.155,959.886,122.216,0,0.000885,0,0
0:8:15.548,966.581,123.071,0,0.000885,0,0
0:8:18.945,973.035,123.892,0,0.000885,0,0
0:8:22.348,979.788,124.754,0,0.000885,0,0
0:8:25.755,986.304,125.581,0,0.000885,0,0
0:8:29.151,993.052,126.436,0,0.000885,0,0
0:8:32.562,1000.51,127.388,0,0.000885,0,0
0:8:35.959,1006.32,128.125,0,0.000885,0,0
0:8:39.361,1013.36,129.028,0,0.000885,0,0
0:8:42.773,1020.17,129.89,0,0.000885,0,0
0:8:46.145,1026.33,130.676,0,0.000885,0,0
0:8:49.553,1033.32,131.566,0,0.000885,0,0
0:8:52.967,1040.71,132.51,0,0.000885,0,0
0:8:56.360,1046.41,133.234,0,0.000885,0,0
0:8:59.754,1053.45,134.131,0,0.000885,0,0
0:9:3.161,1059.68,134.924,0,0.000885,0,0
0:9:6.559,1067.13,135.868,0,0.000885,0,0
0:9:9.942,1073.47,136.682,0,0.000885,0,0
0:9:13.364,1079.81,137.488,0,0.000885,0,0
0:9:16.763,1086.97,138.398,0,0.000885,0,0
0:9:20.162,1093.6,139.24,0,0.000885,0,0
0:9:23.567,1099.94,140.046,0,0.000885,0,0
0:9:26.959,1107.1,140.963,0,0.000885,0,0
0:9:30.349,1113.44,141.77,0,0.000885,0,0
0:9:33.765,1120.49,142.666,0,0.000885,0,0
0:9:37.160,1126.36,143.411,0,0.000885,0,0
0:9:40.554,1133.64,144.342,0,0.000885,0,0
0:9:43.968,1140.68,145.238,0,0.000885,0,0
0:9:47.368,1147.43,146.093,0,0.000885,0,0
0:9:50.753,1154.01,146.934,0,0.000885,0,0
0:9:54.167,1160.52,147.762,0,0.000885,0,0
0:9:57.566,1167.45,148.644,0,0.000885,0,0
0:10:0.958,1174.02,149.478,0,0.000885,0,0
0:10:4.359,1180.48,150.306,0,0.000885,0,0
0:10:7.754,1187.05,151.14,0,0.000885,0,0
0:10:11.124,1193.92,152.016,0,0.000885,0,0
0:10:14.520,1199.85,152.767,0,0.000885,0,0
0:10:17.921,1207.07,153.691,0,0.000885,0,0
0:10:21.295,1213.35,154.491,0,0.000885,0,0
0:10:24.693,1220.57,155.408,0,0.000885,0,0
0:10:28.095,1226.97,156.221,0,0.000885,0,0
0:10:31.473,1233.19,157.014,0,0.000885,0,0
0:10:34.864,1240.18,157.904,0,0.000885,0,0
0:10:38.271,1247.22,158.8,0,0.000885,0,0
0:10:41.665,1253.21,159.565,0,0.000885,0,0
0:10:45.070,1260.78,160.531,0,0.000885,0,0
0:10:48.471,1267.06,161.33,0,0.000885,0,0
0:10:51.865,1273.17,162.103,0,0.000885,0,0
0:10:55.254,1279.92,162.964,0,0.000885,0,0
0:10:58.659,1287.02,163.868,0,0.000885,0,0
0:11:2.050,1293.94,164.75,0,0.000885,0,0
0:11:5.424,1299.93,165.516,0,0.000885,0,0
0:11:8.823,1306.21,166.315,0,0.000885,0,0
0:11:12.210,1313.49,167.239,0,0.000885,0,0
0:11:15.587,1320.01,168.067,0,0.000885,0,0
0:11:18.987,1326.58,168.908,0,0.000885,0,0
0:11:22.381,1333.86,169.832,0,0.000885,0,0
0:11:25.777,1340.02,170.618,0,0.000885,0,0
0:11:29.165,1346.66,171.459,0,0.000885,0,0
0:11:32.579,1353.46,172.328,0,0.000885,0,0
0:11:35.976,1361.1,173.3,0,0.000885,0,0
0:11:39.376,1366.73,174.017,0,0.000885,0,0
0:11:42.779,1373.25,174.844,0,0.000885,0,0
0:11:46.156,1380.7,175.796,0,0.000885,0,0
0:11:49.553,1386.81,176.575,0,0.000885,0,0
0:11:52.946,1393.38,177.409,0,0.000885,0,0
0:11:56.323,1400.25,178.285,0,0.000885,0,0
0:11:59.720,1407.23,179.174,0,0.000885,0,0
0:12:3.113,1412.87,179.891,0,0.000885,0,0
0:12:6.497,1420.5,180.863,0,0.000885,0,0
0:12:9.880,1427.13,181.711,0,0.000885,0,0
0:12:13.282,1432.95,182.449,0,0.000885,0,0
0:12:16.687,1440.22,183.373,0,0.000885,0,0
0:12:20.079,1446.21,184.138,0,0.000885,0,0
0:12:23.477,1452.96,185,0,0.000885,0,0
0:12:26.888,1459.77,185.862,0,0.000885,0,0
0:12:30.264,1466.05,186.662,0,0.000885,0,0
0:12:33.663,1473.39,187.599,0,0.000885,0,0
0:12:37.064,1480.38,188.489,0,0.000885,0,0
0:12:40.484,1486.8,189.302,0,0.000885,0,0
0:12:43.884,1494.34,190.268,0,0.000885,0,0
0:12:47.275,1502.58,191.316,0,0.000885,0,0
0:12:50.683,1506.47,191.812,0,0.000885,0,0
0:12:54.076,1513.71,192.729,0,0.000885,0,0
0:12:57.488,1520.13,193.55,0,0.000885,0,0
0:13:0.865,1526.6,194.37,0,0.000885,0,0
0:13:4.280,1533.43,195.246,0,0.000885,0,0
0:13:7.692,1540.09,196.087,0,0.000885,0,0
0:13:11.080,1546.92,196.963,0,0.000885,0,0
0:13:14.476,1553.75,197.831,0,0.000885,0,0
0:13:17.874,1560.58,198.7,0,0.000885,0,0
0:13:20.789,1564.23,199.162,0,0.000885,0,0