File: DataFile2021-07-28_095210.csv
Test ID:,Date Tested:,Time:,Test Type:,Diameter Avg. (mm):,Cyl. Corr. Factor:,Height (mm):,Age (days):,Weight (kN):,Break Type:,Ramp Rate (MPa/s):,Load at Break (kN):,Stress at Break (MPa):
12,7/28/2021,09:52,Cylinder,150,1,300,0,13.69,3,0.34,827.05,46.8
Sample Time,Load (kN),Stress (MPa),Long. Strain,Trans. Strain,Chan1 Deflection (mm),Chan2 Deflection (mm)
0:0:7.894,7.5086,0.427475,0,0.000885,0,0
0:0:8.490,13.0778,0.737739,0,0.000885,0,0
0:0:9.101,13.2557,0.751529,0,0.000885,0,0
0:0:9.719,13.8429,0.786002,0,0.000885,0,0
0:0:10.316,18.4735,1.048,0,0.000885,0,0
0:0:10.915,22.637,1.28242,0,0.000885,0,0
0:0:11.511,25.9821,1.46858,0,0.000885,0,0
0:0:12.117,30.0299,1.69611,0,0.000885,0,0
0:0:12.714,35.0742,1.98569,0,0.000885,0,0
0:0:13.318,38.7084,2.19253,0,0.000885,0,0
0:0:13.925,43.8105,2.48211,0,0.000885,0,0
0:0:14.529,47.8006,2.70274,0,0.000885,0,0
0:0:15.130,52.3155,2.95785,0,0.000885,0,0
0:0:15.727,54.7798,3.10264,0,0.000885,0,0
0:0:16.321,57.5956,3.26122,0,0.000885,0,0
0:0:16.918,61.1141,3.46117,0,0.000885,0,0
0:0:17.516,64.3969,3.64733,0,0.000885,0,0
0:0:18.114,69.2677,3.91622,0,0.000885,0,0
0:0:18.723,73.0798,4.13685,0,0.000885,0,0
0:0:19.329,76.5984,4.3368,0,0.000885,0,0
0:0:19.929,79.8233,4.51607,0,0.000885,0,0
0:0:20.526,83.5776,4.7298,0,0.000885,0,0
0:0:21.126,87.6833,4.96423,0,0.000885,0,0
0:0:21.724,91.024,5.15038,0,0.000885,0,0
0:0:22.322,95.3076,5.3917,0,0.000885,0,0
0:0:22.917,98.4747,5.57096,0,0.000885,0,0
0:0:23.520,102.816,5.81918,0,0.000885,0,0
0:0:24.127,105.748,5.98465,0,0.000885,0,0
0:0:24.734,110.32,6.23976,0,0.000885,0,0
0:0:25.332,114.484,6.48107,0,0.000885,0,0
0:0:25.926,117.184,6.63276,0,0.000885,0,0
0:0:26.523,120.525,6.81891,0,0.000885,0,0
0:0:27.120,124.221,7.03265,0,0.000885,0,0
0:0:27.718,128.563,7.27397,0,0.000885,0,0
0:0:28.316,131.61,7.44634,0,0.000885,0,0
0:0:28.924,136.187,7.70834,0,0.000885,0,0
0:0:29.529,139.59,7.90139,0,0.000885,0,0
0:0:30.130,143.05,8.09445,0,0.000885,0,0
0:0:30.729,147.094,8.32197,0,0.000885,0,0
0:0:31.329,150.497,8.51503,0,0.000885,0,0
0:0:31.928,154.66,8.74945,0,0.000885,0,0
0:0:32.522,157.712,8.92182,0,0.000885,0,0
0:0:33.118,162.169,9.17692,0,0.000885,0,0
0:0:33.725,165.22,9.34929,0,0.000885,0,0
0:0:34.332,169.793,9.61129,0,0.000885,0,0
0:0:34.935,172.782,9.77677,0,0.000885,0,0
0:0:35.532,176.714,9.9974,0,0.000885,0,0
0:0:36.128,180.82,10.2318,0,0.000885,0,0
0:0:36.725,184.103,10.418,0,0.000885,0,0
0:0:37.326,188.035,10.6386,0,0.000885,0,0
0:0:37.924,191.847,10.8592,0,0.000885,0,0
0:0:38.518,194.485,11.004,0,0.000885,0,0
0:0:39.122,198.707,11.2453,0,0.000885,0,0
0:0:39.724,201.874,11.4246,0,0.000885,0,0
0:0:40.319,205.922,11.6521,0,0.000885,0,0
0:0:40.913,209.44,11.8521,0,0.000885,0,0
0:0:41.507,213.43,12.0796,0,0.000885,0,0
0:0:42.107,216.771,12.2658,0,0.000885,0,0
0:0:42.700,220.525,12.4795,0,0.000885,0,0
0:0:43.300,224.809,12.7208,0,0.000885,0,0
0:0:43.902,228.443,12.9277,0,0.000885,0,0
0:0:44.503,232.433,13.1552,0,0.000885,0,0
0:0:45.098,235.894,13.3483,0,0.000885,0,0
0:0:45.692,239.999,13.5827,0,0.000885,0,0
0:0:46.292,243.224,13.7619,0,0.000885,0,0
0:0:46.884,246.449,13.9481,0,0.000885,0,0
0:0:47.480,250.613,14.1825,0,0.000885,0,0
0:0:48.072,254.016,14.3756,0,0.000885,0,0
0:0:48.679,258.064,14.6031,0,0.000885,0,0
0:0:49.281,261.462,14.7961,0,0.000885,0,0
0:0:49.875,264.629,14.9754,0,0.000885,0,0
0:0:50.468,269.028,15.2236,0,0.000885,0,0
0:0:51.063,273.076,15.4512,0,0.000885,0,0
0:0:51.659,276.421,15.6442,0,0.000885,0,0
0:0:52.254,279.589,15.8235,0,0.000885,0,0
0:0:52.846,283.632,16.051,0,0.000885,0,0
0:0:53.444,287.271,16.2578,0,0.000885,0,0
0:0:54.048,290.673,16.4509,0,0.000885,0,0
0:0:54.649,294.659,16.6715,0,0.000885,0,0
0:0:55.246,298.12,16.8715,0,0.000885,0,0
0:0:55.840,302.226,17.1059,0,0.000885,0,0
0:0:56.432,305.686,17.2989,0,0.000885,0,0
0:0:57.022,309.147,17.492,0,0.000885,0,0
0:0:57.615,313.31,17.7264,0,0.000885,0,0
0:0:58.219,316.887,17.9333,0,0.000885,0,0
0:0:58.824,320.819,18.1539,0,0.000885,0,0
0:0:59.426,324.28,18.3538,0,0.000885,0,0
0:1:0.025,327.505,18.5331,0,0.000885,0,0
0:1:0.616,332.198,18.7951,0,0.000885,0,0
0:1:1.218,335.538,18.9882,0,0.000885,0,0
0:1:1.812,339.47,19.2088,0,0.000885,0,0
0:1:2.405,342.695,19.395,0,0.000885,0,0
0:1:3.001,346.392,19.6018,0,0.000885,0,0
0:1:3.605,350.084,19.8086,0,0.000885,0,0
0:1:4.207,353.838,20.0224,0,0.000885,0,0
0:1:4.803,357.708,20.243,0,0.000885,0,0
0:1:5.397,361.169,20.4361,0,0.000885,0,0
0:1:6.001,365.039,20.6567,0,0.000885,0,0
0:1:6.594,368.326,20.8429,0,0.000885,0,0
0:1:7.216,373.019,21.1117,0,0.000885,0,0
0:1:7.808,376.244,21.291,0,0.000885,0,0
0:1:8.413,379.878,21.4979,0,0.000885,0,0
0:1:9.018,383.69,21.7116,0,0.000885,0,0
0:1:9.618,387.151,21.9115,0,0.000885,0,0
0:1:10.219,390.963,22.1253,0,0.000885,0,0
0:1:10.808,394.13,22.3045,0,0.000885,0,0
0:1:11.404,398.765,22.5665,0,0.000885,0,0
0:1:12.009,401.754,22.732,0,0.000885,0,0
0:1:12.612,405.393,22.9389,0,0.000885,0,0
0:1:13.219,409.85,23.194,0,0.000885,0,0
0:1:13.822,413.075,23.3732,0,0.000885,0,0
0:1:14.424,417.123,23.6076,0,0.000885,0,0
0:1:15.020,420.29,23.7869,0,0.000885,0,0
0:1:15.624,424.69,24.0351,0,0.000885,0,0
0:1:16.217,427.621,24.2006,0,0.000885,0,0
0:1:16.805,430.788,24.3799,0,0.000885,0,0
0:1:17.408,435.361,24.635,0,0.000885,0,0
0:1:18.011,438.884,24.8349,0,0.000885,0,0
0:1:18.617,442.518,25.0418,0,0.000885,0,0
0:1:19.221,446.272,25.2555,0,0.000885,0,0
0:1:19.819,450.494,25.4899,0,0.000885,0,0
0:1:20.421,454.248,25.7037,0,0.000885,0,0
0:1:21.023,458.002,25.9174,0,0.000885,0,0
0:1:21.618,461.872,26.138,0,0.000885,0,0
0:1:22.220,464.746,26.2966,0,0.000885,0,0
0:1:22.813,469.087,26.5448,0,0.000885,0,0
0:1:23.419,472.139,26.7172,0,0.000885,0,0
0:1:24.023,476.418,26.9585,0,0.000885,0,0
0:1:24.623,479.763,27.1516,0,0.000885,0,0
0:1:25.219,483.984,27.386,0,0.000885,0,0
0:1:25.821,487.094,27.5652,0,0.000885,0,0
0:1:26.425,491.551,27.8135,0,0.000885,0,0
0:1:27.018,494.776,27.9996,0,0.000885,0,0
0:1:27.615,498.53,28.2133,0,0.000885,0,0
0:1:28.219,502.4,28.4271,0,0.000885,0,0
0:1:28.823,505.509,28.6063,0,0.000885,0,0
0:1:29.427,509.788,28.8477,0,0.000885,0,0
0:1:30.028,512.604,29.0062,0,0.000885,0,0
0:1:30.618,517.413,29.282,0,0.000885,0,0
0:1:31.219,520.936,29.482,0,0.000885,0,0
0:1:31.820,524.392,29.675,0,0.000885,0,0
0:1:32.413,528.791,29.9232,0,0.000885,0,0
0:1:33.018,531.958,30.1025,0,0.000885,0,0
0:1:33.623,536.064,30.3369,0,0.000885,0,0
0:1:34.224,539,30.5024,0,0.000885,0,0
0:1:34.819,543.337,30.7437,0,0.000885,0,0
0:1:35.411,546.504,30.923,0,0.000885,0,0
0:1:36.004,549.556,31.0954,0,0.000885,0,0
0:1:36.610,553.955,31.3505,0,0.000885,0,0
0:1:37.203,557.589,31.5504,0,0.000885,0,0
0:1:37.796,562.34,31.8193,0,0.000885,0,0
0:1:38.402,564.982,31.971,0,0.000885,0,0
0:1:39.007,569.497,32.2261,0,0.000885,0,0
0:1:39.609,572.958,32.426,0,0.000885,0,0
0:1:40.203,575.947,32.5915,0,0.000885,0,0
0:1:40.819,580.288,32.8397,0,0.000885,0,0
0:1:41.408,583.922,33.0466,0,0.000885,0,0
0:1:42.000,587.152,33.2258,0,0.000885,0,0
0:1:42.603,590.613,33.4189,0,0.000885,0,0
0:1:43.210,594.838,33.6602,0,0.000885,0,0
0:1:43.816,598.597,33.8739,0,0.000885,0,0
0:1:44.422,602.939,34.1222,0,0.000885,0,0
0:1:45.024,606.226,34.3083,0,0.000885,0,0
0:1:45.615,610.158,34.5289,0,0.000885,0,0
0:1:46.222,613.739,34.7289,0,0.000885,0,0
0:1:46.816,616.733,34.9013,0,0.000885,0,0
0:1:47.414,620.843,35.1357,0,0.000885,0,0
0:1:48.010,624.775,35.3563,0,0.000885,0,0
0:1:48.620,628.943,35.5907,0,0.000885,0,0
0:1:49.221,631.937,35.7631,0,0.000885,0,0
0:1:49.819,635.108,35.9424,0,0.000885,0,0
0:1:50.415,639.04,36.163,0,0.000885,0,0
0:1:51.011,642.853,36.3767,0,0.000885,0,0
0:1:51.608,646.905,36.6043,0,0.000885,0,0
0:1:52.203,650.601,36.818,0,0.000885,0,0
0:1:52.796,653.657,36.9904,0,0.000885,0,0
0:1:53.398,658.114,37.2386,0,0.000885,0,0
0:1:54.005,661.05,37.411,0,0.000885,0,0
0:1:54.610,665.512,37.6592,0,0.000885,0,0
0:1:55.228,668.919,37.8522,0,0.000885,0,0
0:1:55.823,672.789,38.0728,0,0.000885,0,0
0:1:56.414,676.49,38.2797,0,0.000885,0,0
0:1:57.021,680.6,38.5141,0,0.000885,0,0
0:1:57.615,683.825,38.6934,0,0.000885,0,0
0:1:58.215,688.229,38.9485,0,0.000885,0,0
0:1:58.822,691.28,39.1209,0,0.000885,0,0
0:1:59.428,694.688,39.3139,0,0.000885,0,0
0:2:0.028,698.562,39.5276,0,0.000885,0,0
0:2:0.623,702.494,39.7552,0,0.000885,0,0
0:2:1.229,706.484,39.9758,0,0.000885,0,0
0:2:1.825,709.772,40.162,0,0.000885,0,0
0:2:2.422,713.704,40.3895,0,0.000885,0,0
0:2:3.015,717.049,40.5756,0,0.000885,0,0
0:2:3.613,720.456,40.7687,0,0.000885,0,0
0:2:4.222,724.504,40.9962,0,0.000885,0,0
0:2:4.823,728.027,41.1962,0,0.000885,0,0
0:2:5.422,731.666,41.403,0,0.000885,0,0
0:2:6.015,735.424,41.6168,0,0.000885,0,0
0:2:6.621,739.357,41.8374,0,0.000885,0,0
0:2:7.226,742.995,42.0442,0,0.000885,0,0
0:2:7.818,747.221,42.2855,0,0.000885,0,0
0:2:8.426,750.744,42.4855,0,0.000885,0,0
0:2:9.032,753.618,42.6441,0,0.000885,0,0
0:2:9.637,758.142,42.8992,0,0.000885,0,0
0:2:10.230,761.429,43.0853,0,0.000885,0,0
0:2:10.825,765.361,43.3129,0,0.000885,0,0
0:2:11.418,768.706,43.499,0,0.000885,0,0
0:2:12.015,773.11,43.7472,0,0.000885,0,0
0:2:12.610,776.513,43.9403,0,0.000885,0,0
0:2:13.217,779.328,44.0989,0,0.000885,0,0
0:2:13.827,783.496,44.3402,0,0.000885,0,0
0:2:14.431,786.846,44.5263,0,0.000885,0,0
0:2:15.029,791.187,44.7746,0,0.000885,0,0
0:2:15.626,794.417,44.9538,0,0.000885,0,0
0:2:16.232,798.407,45.1813,0,0.000885,0,0
0:2:16.828,801.4,45.3468,0,0.000885,0,0
0:2:17.423,805.511,45.5812,0,0.000885,0,0
0:2:18.016,808.914,45.7743,0,0.000885,0,0
0:2:18.619,812.143,45.9605,0,0.000885,0,0
0:2:19.227,816.195,46.188,0,0.000885,0,0
0:2:19.832,819.54,46.3741,0,0.000885,0,0
0:2:20.430,823.588,46.6086,0,0.000885,0,0
0:2:21.023,825.937,46.7396,0,0.000885,0,0
0:2:21.615,825.643,46.7189,0,0.000885,0,0
0:2:22.210,819.95,46.4017,0,0.000885,0,0
0:2:22.803,804.746,45.5399,0,0.000885,0,0
0:2:23.408,759.961,43.0026,0,0.000885,0,0
0:2:23.633,667.331,37.7626,0,0.000885,0,0