File: DataFile2021-06-29_064742.csv
Test ID:,Date Tested:,Time:,Test Type:,Diameter Avg. (mm):,Cyl. Corr. Factor:,Height (mm):,Age (days):,Weight (kN):,Break Type:,Ramp Rate (MPa/s):,Load at Break (kN):,Stress at Break (MPa):
12,6/29/2021,06:47,Cylinder,100,1,200,0,3.6,3,0.25,757.26,96.42
Sample Time,Load (kN),Stress (MPa),Long. Strain,Trans. Strain,Chan1 Deflection (mm),Chan2 Deflection (mm)
0:0:5.667,5.45352,0.69637,0,0.000885,0,0
0:0:7.368,8.26924,1.0549,0,0.000885,0,0
0:0:9.056,11.3786,1.4479,0,0.000885,0,0
0:0:10.744,14.8393,1.88916,0,0.000885,0,0
0:0:12.463,18.767,2.39248,0,0.000885,0,0
0:0:14.164,21.992,2.79927,0,0.000885,0,0
0:0:15.870,25.9242,3.30259,0,0.000885,0,0
0:0:17.586,28.3886,3.61285,0,0.000885,0,0
0:0:19.280,31.9071,4.06101,0,0.000885,0,0
0:0:20.976,35.5413,4.52296,0,0.000885,0,0
0:0:22.687,38.5928,4.91596,0,0.000885,0,0
0:0:24.379,42.2892,5.38481,0,0.000885,0,0
0:0:26.071,45.1628,5.75023,0,0.000885,0,0
0:0:27.785,48.6191,6.19149,0,0.000885,0,0
0:0:29.478,51.7862,6.59139,0,0.000885,0,0
0:0:31.174,55.6606,7.08781,0,0.000885,0,0
0:0:32.884,58.5341,7.45323,0,0.000885,0,0
0:0:34.578,61.937,7.8876,0,0.000885,0,0
0:0:36.268,64.9841,8.27371,0,0.000885,0,0
0:0:37.983,68.387,8.70808,0,0.000885,0,0
0:0:39.675,72.1413,9.18382,0,0.000885,0,0
0:0:41.380,74.957,9.54234,0,0.000885,0,0
0:0:43.086,78.5334,9.9974,0,0.000885,0,0
0:0:44.773,81.5226,10.3766,0,0.000885,0,0
0:0:46.478,84.9833,10.8179,0,0.000885,0,0
0:0:48.182,89.0312,11.335,0,0.000885,0,0
0:0:49.869,92.0248,11.7142,0,0.000885,0,0
0:0:51.571,95.3076,12.1348,0,0.000885,0,0
0:0:53.281,99.2354,12.6381,0,0.000885,0,0
0:0:54.967,102.229,13.0173,0,0.000885,0,0
0:0:56.677,105.276,13.4034,0,0.000885,0,0
0:0:58.376,108.679,13.8378,0,0.000885,0,0
0:1:0.065,112.197,14.2859,0,0.000885,0,0
0:1:1.782,114.955,14.6376,0,0.000885,0,0
0:1:3.482,118.474,15.0857,0,0.000885,0,0
0:1:5.172,121.877,15.5201,0,0.000885,0,0
0:1:6.884,124.986,15.9131,0,0.000885,0,0
0:1:8.583,128.442,16.3544,0,0.000885,0,0
0:1:10.273,131.787,16.7818,0,0.000885,0,0
0:1:11.976,135.6,17.2645,0,0.000885,0,0
0:1:13.676,138.767,17.6713,0,0.000885,0,0
0:1:15.377,141.876,18.0643,0,0.000885,0,0
0:1:17.089,145.573,18.5331,0,0.000885,0,0
0:1:18.781,148.855,18.9537,0,0.000885,0,0
0:1:20.473,152.667,19.4363,0,0.000885,0,0
0:1:22.182,155.541,19.8017,0,0.000885,0,0
0:1:23.874,158.53,20.1878,0,0.000885,0,0
0:1:25.578,161.875,20.6084,0,0.000885,0,0
0:1:27.286,165.22,21.0359,0,0.000885,0,0
0:1:28.978,168.619,21.4703,0,0.000885,0,0
0:1:30.670,172.022,21.9046,0,0.000885,0,0
0:1:32.380,175.131,22.2976,0,0.000885,0,0
0:1:34.074,178.12,22.6769,0,0.000885,0,0
0:1:35.773,182.346,23.2146,0,0.000885,0,0
0:1:37.490,185.393,23.6076,0,0.000885,0,0
0:1:39.182,188.738,24.0282,0,0.000885,0,0
0:1:40.870,192.724,24.5384,0,0.000885,0,0
0:1:42.575,195.072,24.8349,0,0.000885,0,0
0:1:44.260,199.294,25.3727,0,0.000885,0,0
0:1:45.970,202.109,25.7312,0,0.000885,0,0
0:1:47.674,205.864,26.2139,0,0.000885,0,0
0:1:49.358,209.031,26.6138,0,0.000885,0,0
0:1:51.056,211.789,26.9654,0,0.000885,0,0
0:1:52.762,215.717,27.4687,0,0.000885,0,0
0:1:54.458,218.648,27.841,0,0.000885,0,0
0:1:56.158,221.757,28.234,0,0.000885,0,0
0:1:57.863,224.924,28.6408,0,0.000885,0,0
0:1:59.567,228.914,29.1441,0,0.000885,0,0
0:2:1.281,232.606,29.6199,0,0.000885,0,0
0:2:2.975,235.013,29.9232,0,0.000885,0,0
0:2:4.660,238.883,30.4128,0,0.000885,0,0
0:2:6.372,241.934,30.8058,0,0.000885,0,0
0:2:8.064,244.75,31.1643,0,0.000885,0,0
0:2:9.758,248.971,31.7021,0,0.000885,0,0
0:2:11.458,251.903,32.0744,0,0.000885,0,0
0:2:13.165,255.364,32.5157,0,0.000885,0,0
0:2:14.869,259.06,32.9845,0,0.000885,0,0
0:2:16.560,261.991,33.3568,0,0.000885,0,0
0:2:18.264,264.923,33.7292,0,0.000885,0,0
0:2:19.983,268.913,34.2394,0,0.000885,0,0
0:2:21.670,272.196,34.6599,0,0.000885,0,0
0:2:23.368,274.838,34.9909,0,0.000885,0,0
0:2:25.058,278.944,35.5149,0,0.000885,0,0
0:2:26.763,282.636,35.9837,0,0.000885,0,0
0:2:28.450,285.336,36.3285,0,0.000885,0,0
0:2:30.129,289.263,36.8318,0,0.000885,0,0
0:2:31.823,292.195,37.2041,0,0.000885,0,0
0:2:33.511,295.833,37.6661,0,0.000885,0,0
0:2:35.192,299.352,38.1142,0,0.000885,0,0
0:2:36.884,302.226,38.4796,0,0.000885,0,0
0:2:38.581,305.45,38.8933,0,0.000885,0,0
0:2:40.281,308.911,39.3346,0,0.000885,0,0
0:2:41.986,312.198,39.7483,0,0.000885,0,0
0:2:43.677,315.539,40.1758,0,0.000885,0,0
0:2:45.364,318.533,40.555,0,0.000885,0,0
0:2:47.062,322.283,41.0376,0,0.000885,0,0
0:2:48.777,325.04,41.3823,0,0.000885,0,0
0:2:50.476,328.973,41.8857,0,0.000885,0,0
0:2:52.173,332.491,42.3338,0,0.000885,0,0
0:2:53.879,335.48,42.713,0,0.000885,0,0
0:2:55.563,338.474,43.0922,0,0.000885,0,0
0:2:57.269,342.344,43.5887,0,0.000885,0,0
0:2:58.959,345.569,44.0023,0,0.000885,0,0
0:3:0.635,348.91,44.4229,0,0.000885,0,0
0:3:2.342,351.788,44.7883,0,0.000885,0,0
0:3:4.022,355.244,45.2296,0,0.000885,0,0
0:3:5.698,358.647,45.664,0,0.000885,0,0
0:3:7.403,361.934,46.0846,0,0.000885,0,0
0:3:9.085,365.275,46.5051,0,0.000885,0,0
0:3:10.786,368.913,46.974,0,0.000885,0,0
0:3:12.485,371.667,47.3256,0,0.000885,0,0
0:3:14.165,375.657,47.8289,0,0.000885,0,0
0:3:15.885,378.179,48.153,0,0.000885,0,0
0:3:17.588,381.991,48.6356,0,0.000885,0,0
0:3:19.280,385.394,49.07,0,0.000885,0,0
0:3:20.980,388.792,49.5044,0,0.000885,0,0
0:3:22.682,392.137,49.9318,0,0.000885,0,0
0:3:24.380,395.247,50.3248,0,0.000885,0,0
0:3:26.082,398.823,50.7799,0,0.000885,0,0
0:3:27.784,401.99,51.1798,0,0.000885,0,0
0:3:29.468,405.451,51.621,0,0.000885,0,0
0:3:31.168,408.854,52.0554,0,0.000885,0,0
0:3:32.875,411.901,52.4484,0,0.000885,0,0
0:3:34.582,415.304,52.8759,0,0.000885,0,0
0:3:36.285,418.649,53.3034,0,0.000885,0,0
0:3:37.983,422.11,53.7446,0,0.000885,0,0
0:3:39.669,425.45,54.1721,0,0.000885,0,0
0:3:41.376,428.853,54.6065,0,0.000885,0,0
0:3:43.087,431.9,54.9926,0,0.000885,0,0
0:3:44.783,435.774,55.4821,0,0.000885,0,0
0:3:46.487,439.173,55.9165,0,0.000885,0,0
0:3:48.176,442.224,56.3026,0,0.000885,0,0
0:3:49.885,445.449,56.7163,0,0.000885,0,0
0:3:51.590,449.261,57.1989,0,0.000885,0,0
0:3:53.276,451.904,57.5367,0,0.000885,0,0
0:3:54.975,455.716,58.0263,0,0.000885,0,0
0:3:56.676,458.883,58.4262,0,0.000885,0,0
0:3:58.366,462.05,58.833,0,0.000885,0,0
0:4:0.048,465.804,59.3087,0,0.000885,0,0
0:4:1.744,468.322,59.6259,0,0.000885,0,0
0:4:3.424,471.783,60.0671,0,0.000885,0,0
0:4:5.106,475.479,60.5429,0,0.000885,0,0
0:4:6.804,478.589,60.9359,0,0.000885,0,0
0:4:8.487,482.107,61.384,0,0.000885,0,0
0:4:10.187,485.274,61.7839,0,0.000885,0,0
0:4:11.895,488.148,62.1562,0,0.000885,0,0
0:4:13.590,492.254,62.6733,0,0.000885,0,0
0:4:15.275,495.305,63.0663,0,0.000885,0,0
0:4:16.975,498.824,63.5145,0,0.000885,0,0
0:4:18.680,502.106,63.9282,0,0.000885,0,0
0:4:20.375,505.331,64.3419,0,0.000885,0,0
0:4:22.081,508.676,64.7693,0,0.000885,0,0
0:4:23.772,512.195,65.2175,0,0.000885,0,0
0:4:25.488,515.362,65.6174,0,0.000885,0,0
0:4:27.193,518.765,66.0518,0,0.000885,0,0
0:4:28.883,522.106,66.4792,0,0.000885,0,0
0:4:30.578,525.099,66.8585,0,0.000885,0,0
0:4:32.287,528.911,67.3411,0,0.000885,0,0
0:4:33.987,532.603,67.8168,0,0.000885,0,0
0:4:35.672,535.068,68.1271,0,0.000885,0,0
0:4:37.381,538.706,68.589,0,0.000885,0,0
0:4:39.069,541.753,68.9752,0,0.000885,0,0
0:4:40.746,545.214,69.4164,0,0.000885,0,0
0:4:42.453,548.501,69.837,0,0.000885,0,0
0:4:44.133,551.9,70.2714,0,0.000885,0,0
0:4:45.820,555.303,70.7057,0,0.000885,0,0
0:4:47.520,558.941,71.1677,0,0.000885,0,0
0:4:49.200,562.224,71.5814,0,0.000885,0,0
0:4:50.894,565.155,71.9606,0,0.000885,0,0
0:4:52.586,568.501,72.3812,0,0.000885,0,0
0:4:54.291,571.961,72.8224,0,0.000885,0,0
0:4:55.990,575.008,73.2154,0,0.000885,0,0
0:4:57.687,578.411,73.6429,0,0.000885,0,0
0:4:59.367,581.814,74.0773,0,0.000885,0,0
0:5:1.068,585.862,74.5944,0,0.000885,0,0
0:5:2.759,588.38,74.9184,0,0.000885,0,0
0:5:4.449,591.845,75.3528,0,0.000885,0,0
0:5:6.150,595.31,75.7941,0,0.000885,0,0
0:5:7.851,598.597,76.2146,0,0.000885,0,0
0:5:9.537,601.942,76.6421,0,0.000885,0,0
0:5:11.239,605.523,77.0972,0,0.000885,0,0
0:5:12.943,608.632,77.4902,0,0.000885,0,0
0:5:14.627,611.626,77.8763,0,0.000885,0,0
0:5:16.335,615.207,78.3313,0,0.000885,0,0
0:5:18.031,618.61,78.7657,0,0.000885,0,0
0:5:19.713,621.781,79.1656,0,0.000885,0,0
0:5:21.418,624.891,79.5655,0,0.000885,0,0
0:5:23.113,628.062,79.9654,0,0.000885,0,0
0:5:24.800,631.465,80.3998,0,0.000885,0,0
0:5:26.504,634.752,80.8203,0,0.000885,0,0
0:5:28.200,638.333,81.2754,0,0.000885,0,0
0:5:29.887,642.208,81.7718,0,0.000885,0,0
0:5:31.597,645.615,82.1993,0,0.000885,0,0
0:5:33.284,648.431,82.5578,0,0.000885,0,0
0:5:34.994,652.189,83.0405,0,0.000885,0,0
0:5:36.701,655.241,83.4266,0,0.000885,0,0
0:5:38.402,658.644,83.8609,0,0.000885,0,0
0:5:40.087,661.522,84.2264,0,0.000885,0,0
0:5:41.798,665.045,84.6745,0,0.000885,0,0
0:5:43.495,668.857,85.164,0,0.000885,0,0
0:5:45.195,671.677,85.5226,0,0.000885,0,0
0:5:46.901,675.316,85.9845,0,0.000885,0,0
0:5:48.589,678.425,86.3775,0,0.000885,0,0
0:5:50.278,682.064,86.8464,0,0.000885,0,0
0:5:51.992,684.764,87.1842,0,0.000885,0,0
0:5:53.688,688.7,87.6875,0,0.000885,0,0
0:5:55.385,691.752,88.0736,0,0.000885,0,0
0:5:57.102,695.155,88.508,0,0.000885,0,0
0:5:58.797,698.442,88.9286,0,0.000885,0,0
0:6:0.493,702.081,89.3905,0,0.000885,0,0
0:6:2.209,705.604,89.8387,0,0.000885,0,0
0:6:3.893,708.482,90.2041,0,0.000885,0,0
0:6:5.598,712.414,90.7074,0,0.000885,0,0
0:6:7.306,715.35,91.0797,0,0.000885,0,0
0:6:8.991,718.517,91.4865,0,0.000885,0,0
0:6:10.683,722.333,91.9692,0,0.000885,0,0
0:6:12.390,725.091,92.3208,0,0.000885,0,0
0:6:14.089,728.85,92.7965,0,0.000885,0,0
0:6:15.800,731.55,93.1413,0,0.000885,0,0
0:6:17.509,735.011,93.5825,0,0.000885,0,0
0:6:19.195,738.649,94.0514,0,0.000885,0,0
0:6:20.904,741.821,94.4513,0,0.000885,0,0
0:6:22.612,744.872,94.8374,0,0.000885,0,0
0:6:24.303,748.573,95.3131,0,0.000885,0,0
0:6:26.003,752.092,95.7613,0,0.000885,0,0
0:6:27.699,755.379,96.175,0,0.000885,0,0
0:6:29.405,752.621,95.8233,0,0.000885,0,0
0:6:31.111,753.853,95.9819,0,0.000885,0,0
0:6:32.808,740.117,94.2375,0,0.000885,0,0
0:6:33.126,735.362,93.6308,0,0.000885,0,0