File: DataFile2021-07-17_041835.csv
Test ID:,Date Tested:,Time:,Test Type:,Diameter Avg. (mm):,Cyl. Corr. Factor:,Height (mm):,Age (days):,Weight (kN):,Break Type:,Ramp Rate (MPa/s):,Load at Break (kN):,Stress at Break (MPa):
12,7/17/2021,04:18,Cylinder,100,1,200,0,3.6,3,0.25,1108.34,141.11
Sample Time,Load (kN),Stress (MPa),Long. Strain,Trans. Strain,Chan1 Deflection (mm),Chan2 Deflection (mm)
0:0:15.254,5.10211,0.648107,0,0.000885,0,0
0:0:17.640,9.91064,1.26174,0,0.000885,0,0
0:0:20.022,13.6071,1.73058,0,0.000885,0,0
0:0:22.434,18.6514,2.3718,0,0.000885,0,0
0:0:24.825,23.5177,2.99232,0,0.000885,0,0
0:0:27.239,27.917,3.55769,0,0.000885,0,0
0:0:29.629,33.8421,4.30922,0,0.000885,0,0
0:0:32.039,38.8285,4.94354,0,0.000885,0,0
0:0:34.432,42.9342,5.46754,0,0.000885,0,0
0:0:36.843,47.9162,6.10186,0,0.000885,0,0
0:0:39.232,52.2577,6.65344,0,0.000885,0,0
0:0:41.645,56.8305,7.2395,0,0.000885,0,0
0:0:44.040,61.8748,7.88071,0,0.000885,0,0
0:0:46.445,66.3319,8.44608,0,0.000885,0,0
0:0:48.842,71.3183,9.0804,0,0.000885,0,0
0:0:51.244,75.4819,9.61129,0,0.000885,0,0
0:0:53.639,80.3527,10.2318,0,0.000885,0,0
0:0:56.045,85.1612,10.8455,0,0.000885,0,0
0:0:58.445,89.9119,11.4453,0,0.000885,0,0
0:1:0.839,94.0176,11.9693,0,0.000885,0,0
0:1:3.245,99.5868,12.6795,0,0.000885,0,0
0:1:5.635,104.044,13.2448,0,0.000885,0,0
0:1:8.043,108.857,13.8585,0,0.000885,0,0
0:1:10.433,113.723,14.479,0,0.000885,0,0
0:1:12.845,118.123,15.0375,0,0.000885,0,0
0:1:15.234,122.815,15.6373,0,0.000885,0,0
0:1:17.647,128.091,16.3061,0,0.000885,0,0
0:1:20.037,131.965,16.8025,0,0.000885,0,0
0:1:22.448,137.183,17.4644,0,0.000885,0,0
0:1:24.839,141.582,18.0298,0,0.000885,0,0
0:1:27.253,146.685,18.6779,0,0.000885,0,0
0:1:29.640,151.084,19.2364,0,0.000885,0,0
0:1:32.054,155.95,19.8569,0,0.000885,0,0
0:1:34.444,160.292,20.4085,0,0.000885,0,0
0:1:36.855,164.749,20.9739,0,0.000885,0,0
0:1:39.244,169.615,21.5944,0,0.000885,0,0
0:1:41.653,175.189,22.3045,0,0.000885,0,0
0:1:44.046,178.885,22.7734,0,0.000885,0,0
0:1:46.448,183.987,23.4284,0,0.000885,0,0
0:1:48.851,188.912,24.0558,0,0.000885,0,0
0:1:51.250,194.249,24.7315,0,0.000885,0,0
0:1:53.632,198.182,25.2348,0,0.000885,0,0
0:1:56.008,202.87,25.8278,0,0.000885,0,0
0:1:58.402,208.208,26.5103,0,0.000885,0,0
0:2:0.806,211.611,26.9447,0,0.000885,0,0
0:2:3.203,217.358,27.6756,0,0.000885,0,0
0:2:5.589,221.521,28.2065,0,0.000885,0,0
0:2:7.982,226.041,28.7787,0,0.000885,0,0
0:2:10.356,230.907,29.3992,0,0.000885,0,0
0:2:12.752,236.419,30.1025,0,0.000885,0,0
0:2:15.120,240.231,30.5851,0,0.000885,0,0
0:2:17.516,245.337,31.2401,0,0.000885,0,0
0:2:19.907,250.377,31.8814,0,0.000885,0,0
0:2:22.308,254.834,32.4467,0,0.000885,0,0
0:2:24.707,258.94,32.9707,0,0.000885,0,0
0:2:27.106,264.278,33.6464,0,0.000885,0,0
0:2:29.504,269.206,34.2738,0,0.000885,0,0
0:2:31.906,273.663,34.8461,0,0.000885,0,0
0:2:34.290,278.063,35.4046,0,0.000885,0,0
0:2:36.691,282.871,36.0182,0,0.000885,0,0
0:2:39.089,287.622,36.6181,0,0.000885,0,0
0:2:41.500,292.315,37.2179,0,0.000885,0,0
0:2:43.904,296.536,37.7557,0,0.000885,0,0
0:2:46.305,301.696,38.4107,0,0.000885,0,0
0:2:48.705,306.389,39.0105,0,0.000885,0,0
0:2:51.098,311.843,39.7069,0,0.000885,0,0
0:2:53.504,315.481,40.1689,0,0.000885,0,0
0:2:55.896,321.17,40.8928,0,0.000885,0,0
0:2:58.285,325.098,41.3961,0,0.000885,0,0
0:3:0.661,329.675,41.9753,0,0.000885,0,0
0:3:3.054,334.248,42.5613,0,0.000885,0,0
0:3:5.416,338.999,43.1612,0,0.000885,0,0
0:3:7.814,343.985,43.7955,0,0.000885,0,0
0:3:10.202,348.265,44.3402,0,0.000885,0,0
0:3:12.606,353.838,45.0503,0,0.000885,0,0
0:3:14.996,358.353,45.6295,0,0.000885,0,0
0:3:17.388,362.873,46.2018,0,0.000885,0,0
0:3:19.756,367.561,46.8016,0,0.000885,0,0
0:3:22.154,372.547,47.4359,0,0.000885,0,0
0:3:24.524,376.769,47.9737,0,0.000885,0,0
0:3:26.917,381.11,48.5253,0,0.000885,0,0
0:3:29.310,386.448,49.201,0,0.000885,0,0
0:3:31.717,390.612,49.7319,0,0.000885,0,0
0:3:34.112,395.834,50.4007,0,0.000885,0,0
0:3:36.514,400.464,50.9867,0,0.000885,0,0
0:3:38.906,405.393,51.6142,0,0.000885,0,0
0:3:41.322,409.263,52.1106,0,0.000885,0,0
0:3:43.717,414.25,52.7449,0,0.000885,0,0
0:3:46.119,419.352,53.393,0,0.000885,0,0
0:3:48.513,424.218,54.0135,0,0.000885,0,0
0:3:50.916,428.853,54.6065,0,0.000885,0,0
0:3:53.305,433.074,55.1443,0,0.000885,0,0
0:3:55.682,437.652,55.7234,0,0.000885,0,0
0:3:58.070,442.109,56.2888,0,0.000885,0,0
0:4:0.449,446.802,56.8886,0,0.000885,0,0
0:4:2.831,452.135,57.5712,0,0.000885,0,0
0:4:5.215,456.592,58.1366,0,0.000885,0,0
0:4:7.618,461.343,58.7433,0,0.000885,0,0
0:4:10.014,465.92,59.3225,0,0.000885,0,0
0:4:12.422,470.729,59.9361,0,0.000885,0,0
0:4:14.808,475.186,60.5015,0,0.000885,0,0
0:4:17.215,480.346,61.1565,0,0.000885,0,0
0:4:19.617,485.096,61.7632,0,0.000885,0,0
0:4:22.023,489.967,62.3838,0,0.000885,0,0
0:4:24.421,493.837,62.8802,0,0.000885,0,0
0:4:26.828,498.703,63.4938,0,0.000885,0,0
0:4:29.217,503.868,64.1557,0,0.000885,0,0
0:4:31.628,508.325,64.7211,0,0.000885,0,0
0:4:34.022,513.018,65.3209,0,0.000885,0,0
0:4:36.426,518,65.9552,0,0.000885,0,0
0:4:38.815,522.871,66.5758,0,0.000885,0,0
0:4:41.228,527.27,67.1343,0,0.000885,0,0
0:4:43.605,531.843,67.7134,0,0.000885,0,0
0:4:46.023,536.536,68.3133,0,0.000885,0,0
0:4:48.399,541.46,68.9407,0,0.000885,0,0
0:4:50.786,545.917,69.506,0,0.000885,0,0
0:4:53.171,550.436,70.0852,0,0.000885,0,0
0:4:55.546,555.125,70.6782,0,0.000885,0,0
0:4:57.937,560.053,71.3056,0,0.000885,0,0
0:5:0.328,565.04,71.9399,0,0.000885,0,0
0:5:2.720,569.377,72.4984,0,0.000885,0,0
0:5:5.096,574.19,73.1051,0,0.000885,0,0
0:5:7.490,578.705,73.6843,0,0.000885,0,0
0:5:9.860,583.865,74.3393,0,0.000885,0,0
0:5:12.263,588.615,74.946,0,0.000885,0,0
0:5:14.644,592.258,75.408,0,0.000885,0,0
0:5:17.047,597.596,76.0905,0,0.000885,0,0
0:5:19.435,602.351,76.6973,0,0.000885,0,0
0:5:21.843,607.107,77.2971,0,0.000885,0,0
0:5:24.222,611.804,77.897,0,0.000885,0,0
0:5:26.643,616.559,78.5037,0,0.000885,0,0
0:5:29.022,621.314,79.1104,0,0.000885,0,0
0:5:31.437,626.243,79.7379,0,0.000885,0,0
0:5:33.823,630.002,80.2136,0,0.000885,0,0
0:5:36.239,635.695,80.9376,0,0.000885,0,0
0:5:38.622,640.215,81.5167,0,0.000885,0,0
0:5:41.038,644.97,82.1166,0,0.000885,0,0
0:5:43.426,649.018,82.6337,0,0.000885,0,0
0:5:45.834,654.124,83.2887,0,0.000885,0,0
0:5:48.223,659.115,83.923,0,0.000885,0,0
0:5:50.640,663.813,84.5159,0,0.000885,0,0
0:5:53.034,668.39,85.102,0,0.000885,0,0
0:5:55.430,672.794,85.6605,0,0.000885,0,0
0:5:57.835,677.78,86.2948,0,0.000885,0,0
0:6:0.228,682.593,86.9084,0,0.000885,0,0
0:6:2.634,687.055,87.4807,0,0.000885,0,0
0:6:5.033,691.81,88.0874,0,0.000885,0,0
0:6:7.435,696.271,88.6528,0,0.000885,0,0
0:6:9.826,701.262,89.2871,0,0.000885,0,0
0:6:12.229,706.133,89.9076,0,0.000885,0,0
0:6:14.626,710.652,90.4799,0,0.000885,0,0
0:6:17.040,715.465,91.0935,0,0.000885,0,0
0:6:19.433,720.163,91.6934,0,0.000885,0,0
0:6:21.842,724.74,92.2794,0,0.000885,0,0
0:6:24.234,729.379,92.8655,0,0.000885,0,0
0:6:26.638,734.424,93.5067,0,0.000885,0,0
0:6:29.033,738.654,94.0514,0,0.000885,0,0
0:6:31.449,743.467,94.6581,0,0.000885,0,0
0:6:33.836,747.866,95.2235,0,0.000885,0,0
0:6:36.243,753.444,95.9337,0,0.000885,0,0
0:6:38.628,757.728,96.4783,0,0.000885,0,0
0:6:41.044,762.661,97.1058,0,0.000885,0,0
0:6:43.430,767.18,97.678,0,0.000885,0,0
0:6:45.825,771.993,98.2917,0,0.000885,0,0
0:6:48.234,776.335,98.8432,0,0.000885,0,0
0:6:50.639,781.09,99.45,0,0.000885,0,0
0:6:53.031,786.374,100.126,0,0.000885,0,0
0:6:55.436,790.778,100.684,0,0.000885,0,0
0:6:57.841,795.649,101.305,0,0.000885,0,0
0:7:0.229,800.111,101.87,0,0.000885,0,0
0:7:2.634,804.688,102.456,0,0.000885,0,0
0:7:5.026,809.679,103.09,0,0.000885,0,0
0:7:7.433,814.02,103.642,0,0.000885,0,0
0:7:9.834,819.011,104.276,0,0.000885,0,0
0:7:12.244,823.944,104.911,0,0.000885,0,0
0:7:14.635,828.695,105.51,0,0.000885,0,0
0:7:17.039,833.099,106.076,0,0.000885,0,0
0:7:19.434,837.912,106.689,0,0.000885,0,0
0:7:21.850,842.782,107.31,0,0.000885,0,0
0:7:24.233,848.009,107.972,0,0.000885,0,0
0:7:26.649,852.057,108.489,0,0.000885,0,0
0:7:29.034,856.932,109.11,0,0.000885,0,0
0:7:31.449,861.509,109.689,0,0.000885,0,0
0:7:33.840,866.442,110.316,0,0.000885,0,0
0:7:36.254,870.726,110.861,0,0.000885,0,0
0:7:38.643,875.712,111.502,0,0.000885,0,0
0:7:41.049,880.294,112.081,0,0.000885,0,0
0:7:43.439,885.223,112.709,0,0.000885,0,0
0:7:45.851,889.333,113.233,0,0.000885,0,0
0:7:48.237,894.324,113.867,0,0.000885,0,0
0:7:50.646,899.252,114.494,0,0.000885,0,0
0:7:53.039,903.83,115.08,0,0.000885,0,0
0:7:55.447,909.056,115.742,0,0.000885,0,0
0:7:57.843,913.398,116.301,0,0.000885,0,0
0:8:0.247,918.037,116.887,0,0.000885,0,0
0:8:2.651,922.205,117.418,0,0.000885,0,0
0:8:5.047,926.84,118.011,0,0.000885,0,0
0:8:7.451,932.418,118.721,0,0.000885,0,0
0:8:9.839,936.938,119.293,0,0.000885,0,0
0:8:12.247,941.577,119.886,0,0.000885,0,0
0:8:14.640,946.212,120.472,0,0.000885,0,0
0:8:17.055,951.145,121.106,0,0.000885,0,0
0:8:19.431,955.838,121.699,0,0.000885,0,0
0:8:21.853,960.184,122.251,0,0.000885,0,0
0:8:24.245,965.233,122.899,0,0.000885,0,0
0:8:26.651,969.752,123.471,0,0.000885,0,0
0:8:29.041,975.21,124.168,0,0.000885,0,0
0:8:31.461,979.258,124.685,0,0.000885,0,0
0:8:33.843,983.782,125.257,0,0.000885,0,0
0:8:36.257,989.062,125.933,0,0.000885,0,0
0:8:38.637,992.879,126.415,0,0.000885,0,0
0:8:41.051,998.337,127.112,0,0.000885,0,0
0:8:43.437,1003.5,127.767,0,0.000885,0,0
0:8:45.855,1007.9,128.332,0,0.000885,0,0
0:8:48.246,1012.25,128.884,0,0.000885,0,0
0:8:50.655,1016.89,129.477,0,0.000885,0,0
0:8:53.052,1022.29,130.159,0,0.000885,0,0
0:8:55.448,1025.81,130.607,0,0.000885,0,0
0:8:57.849,1030.8,131.249,0,0.000885,0,0
0:9:0.247,1036.08,131.917,0,0.000885,0,0
0:9:2.647,1040.48,132.476,0,0.000885,0,0
0:9:5.036,1045.12,133.069,0,0.000885,0,0
0:9:7.439,1049.99,133.689,0,0.000885,0,0
0:9:9.846,1053.69,134.158,0,0.000885,0,0
0:9:12.253,1059.74,134.93,0,0.000885,0,0
0:9:14.650,1064.37,135.523,0,0.000885,0,0
0:9:17.061,1068.84,136.089,0,0.000885,0,0
0:9:19.439,1072.83,136.599,0,0.000885,0,0
0:9:21.845,1078.34,137.302,0,0.000885,0,0
0:9:24.249,1082.39,137.812,0,0.000885,0,0
0:9:26.653,1087.91,138.516,0,0.000885,0,0
0:9:29.042,1093.02,139.171,0,0.000885,0,0
0:9:31.461,1097.13,139.688,0,0.000885,0,0
0:9:33.852,1101.7,140.274,0,0.000885,0,0
0:9:36.256,1106.75,140.915,0,0.000885,0,0
0:9:38.648,1002.27,127.615,0,0.000885,0,0
0:9:38.676,1002.27,127.615,0,0.000885,0,0