File: DataFile2021-06-06_051955.csv
Test ID:,Date Tested:,Time:,Test Type:,Diameter Avg. (mm):,Cyl. Corr. Factor:,Height (mm):,Age (days):,Weight (kN):,Break Type:,Ramp Rate (MPa/s):,Load at Break (kN):,Stress at Break (MPa):
12,6/6/2021,05:19,Cylinder,150,1,300,0,13.39,3,0.24,759.2,42.96
Sample Time,Load (kN),Stress (MPa),Long. Strain,Trans. Strain,Chan1 Deflection (mm),Chan2 Deflection (mm)
0:0:18.621,5.80493,0.330948,0,0.000885,0,0
0:0:19.424,12.0814,0.682581,0,0.000885,0,0
0:0:20.229,12.3171,0.69637,0,0.000885,0,0
0:0:21.040,14.9549,0.848055,0,0.000885,0,0
0:0:21.836,18.4156,1.04111,0,0.000885,0,0
0:0:22.642,22.8149,1.28932,0,0.000885,0,0
0:0:23.439,26.5692,1.50306,0,0.000885,0,0
0:0:24.245,31.0842,1.75816,0,0.000885,0,0
0:0:25.053,35.0164,1.9788,0,0.000885,0,0
0:0:25.854,37.6542,2.13048,0,0.000885,0,0
0:0:26.647,40.7012,2.30285,0,0.000885,0,0
0:0:27.446,43.9885,2.48901,0,0.000885,0,0
0:0:28.240,47.7428,2.70274,0,0.000885,0,0
0:0:29.036,51.3191,2.90269,0,0.000885,0,0
0:0:29.849,54.6642,3.09575,0,0.000885,0,0
0:0:30.654,58.3562,3.30259,0,0.000885,0,0
0:0:31.448,61.8748,3.50254,0,0.000885,0,0
0:0:32.244,66.2162,3.74385,0,0.000885,0,0
0:0:33.052,69.7348,3.9438,0,0.000885,0,0
0:0:33.845,73.2533,4.14375,0,0.000885,0,0
0:0:34.654,77.3012,4.37128,0,0.000885,0,0
0:0:35.460,80.4105,4.55054,0,0.000885,0,0
0:0:36.260,82.9905,4.69533,0,0.000885,0,0
0:0:37.054,86.6247,4.90217,0,0.000885,0,0
0:0:37.851,90.4412,5.11591,0,0.000885,0,0
0:0:38.647,94.0176,5.32275,0,0.000885,0,0
0:0:39.449,97.1847,5.50202,0,0.000885,0,0
0:0:40.257,100.939,5.70886,0,0.000885,0,0
0:0:41.057,105.16,5.95018,0,0.000885,0,0
0:0:41.858,108.385,6.13633,0,0.000885,0,0
0:0:42.649,111.379,6.30181,0,0.000885,0,0
0:0:43.448,115.307,6.52244,0,0.000885,0,0
0:0:44.252,118.768,6.72239,0,0.000885,0,0
0:0:45.059,122.58,6.93613,0,0.000885,0,0
0:0:45.859,125.983,7.12918,0,0.000885,0,0
0:0:46.655,129.323,7.31534,0,0.000885,0,0
0:0:47.452,132.139,7.48081,0,0.000885,0,0
0:0:48.246,136.654,7.73592,0,0.000885,0,0
0:0:49.048,139.999,7.92208,0,0.000885,0,0
0:0:49.859,142.695,8.07376,0,0.000885,0,0
0:0:50.662,147.623,8.35645,0,0.000885,0,0
0:0:51.460,150.906,8.5426,0,0.000885,0,0
0:0:52.256,154.429,8.73566,0,0.000885,0,0
0:0:53.053,157.534,8.91492,0,0.000885,0,0
0:0:53.846,160.349,9.0735,0,0.000885,0,0
0:0:54.656,164.749,9.32171,0,0.000885,0,0
0:0:55.464,167.8,9.49408,0,0.000885,0,0
0:0:56.262,171.199,9.68713,0,0.000885,0,0
0:0:57.058,175.189,9.91466,0,0.000885,0,0
0:0:57.853,179.117,10.1353,0,0.000885,0,0
0:0:58.655,182.404,10.3215,0,0.000885,0,0
0:0:59.456,185.744,10.5145,0,0.000885,0,0
0:1:0.265,189.089,10.7007,0,0.000885,0,0
0:1:1.066,193.137,10.9282,0,0.000885,0,0
0:1:1.855,197.007,11.1488,0,0.000885,0,0
0:1:2.648,199.645,11.3005,0,0.000885,0,0
0:1:3.443,203.515,11.5142,0,0.000885,0,0
0:1:4.248,207.038,11.7142,0,0.000885,0,0
0:1:5.052,210.205,11.8935,0,0.000885,0,0
0:1:5.850,213.724,12.0934,0,0.000885,0,0
0:1:6.640,217.536,12.3071,0,0.000885,0,0
0:1:7.432,220.997,12.5071,0,0.000885,0,0
0:1:8.234,224.631,12.7139,0,0.000885,0,0
0:1:9.030,228.327,12.9208,0,0.000885,0,0
0:1:9.835,232.082,13.1345,0,0.000885,0,0
0:1:10.630,235.364,13.3207,0,0.000885,0,0
0:1:11.423,238.825,13.5137,0,0.000885,0,0
0:1:12.232,242.344,13.7137,0,0.000885,0,0
0:1:13.021,245.804,13.9067,0,0.000885,0,0
0:1:13.814,249.438,14.1136,0,0.000885,0,0
0:1:14.621,252.668,14.2997,0,0.000885,0,0
0:1:15.425,256.244,14.4997,0,0.000885,0,0
0:1:16.241,260.234,14.7272,0,0.000885,0,0
0:1:17.044,263.691,14.9203,0,0.000885,0,0
0:1:17.845,267.445,15.134,0,0.000885,0,0
0:1:18.645,270.203,15.2926,0,0.000885,0,0
0:1:19.447,274.251,15.5201,0,0.000885,0,0
0:1:20.249,278.005,15.7338,0,0.000885,0,0
0:1:21.042,280.994,15.8993,0,0.000885,0,0
0:1:21.849,284.633,16.1062,0,0.000885,0,0
0:1:22.640,288.383,16.3199,0,0.000885,0,0
0:1:23.450,291.67,16.506,0,0.000885,0,0
0:1:24.245,294.543,16.6646,0,0.000885,0,0
0:1:25.049,298.591,16.8991,0,0.000885,0,0
0:1:25.854,302.813,17.1335,0,0.000885,0,0
0:1:26.647,305.802,17.3058,0,0.000885,0,0
0:1:27.432,309.325,17.5058,0,0.000885,0,0
0:1:28.246,312.781,17.6988,0,0.000885,0,0
0:1:29.031,316.887,17.9333,0,0.000885,0,0
0:1:29.835,319.645,18.0849,0,0.000885,0,0
0:1:30.637,323.635,18.3125,0,0.000885,0,0
0:1:31.439,327.389,18.5262,0,0.000885,0,0
0:1:32.229,330.494,18.7055,0,0.000885,0,0
0:1:33.038,333.839,18.8916,0,0.000885,0,0
0:1:33.840,337.945,19.1261,0,0.000885,0,0
0:1:34.647,341.521,19.326,0,0.000885,0,0
0:1:35.449,345.04,19.526,0,0.000885,0,0
0:1:36.235,348.207,19.7052,0,0.000885,0,0
0:1:37.029,352.197,19.9327,0,0.000885,0,0
0:1:37.837,355.186,20.0982,0,0.000885,0,0
0:1:38.638,358.06,20.2637,0,0.000885,0,0
0:1:39.451,362.459,20.5119,0,0.000885,0,0
0:1:40.251,365.626,20.6912,0,0.000885,0,0
0:1:41.044,369.79,20.9256,0,0.000885,0,0
0:1:41.841,373.135,21.1117,0,0.000885,0,0
0:1:42.647,376.417,21.2979,0,0.000885,0,0
0:1:43.433,379.762,21.491,0,0.000885,0,0
0:1:44.238,383.69,21.7116,0,0.000885,0,0
0:1:45.041,387.387,21.9184,0,0.000885,0,0
0:1:45.852,391.435,22.1529,0,0.000885,0,0
0:1:46.653,394.25,22.3114,0,0.000885,0,0
0:1:47.441,398,22.5252,0,0.000885,0,0
0:1:48.232,401.403,22.7182,0,0.000885,0,0
0:1:49.036,404.864,22.9113,0,0.000885,0,0
0:1:49.840,408.502,23.1181,0,0.000885,0,0
0:1:50.634,411.901,23.3112,0,0.000885,0,0
0:1:51.437,415.655,23.518,0,0.000885,0,0
0:1:52.248,418.587,23.6904,0,0.000885,0,0
0:1:53.049,422.755,23.9248,0,0.000885,0,0
0:1:53.837,426.037,24.111,0,0.000885,0,0
0:1:54.643,429.556,24.3109,0,0.000885,0,0
0:1:55.445,433.426,24.5247,0,0.000885,0,0
0:1:56.242,437.3,24.7453,0,0.000885,0,0
0:1:57.037,440.232,24.9108,0,0.000885,0,0
0:1:57.844,444.395,25.1452,0,0.000885,0,0
0:1:58.645,446.802,25.2831,0,0.000885,0,0
0:1:59.445,450.614,25.4968,0,0.000885,0,0
0:2:0.249,454.542,25.7243,0,0.000885,0,0
0:2:1.055,458.176,25.9243,0,0.000885,0,0
0:2:1.839,461.343,26.1036,0,0.000885,0,0
0:2:2.635,464.63,26.2897,0,0.000885,0,0
0:2:3.433,468.384,26.5034,0,0.000885,0,0
0:2:4.228,472.019,26.7103,0,0.000885,0,0
0:2:5.033,476.066,26.9378,0,0.000885,0,0
0:2:5.831,479.349,27.124,0,0.000885,0,0
0:2:6.643,483.161,27.3446,0,0.000885,0,0
0:2:7.452,486.213,27.517,0,0.000885,0,0
0:2:8.243,489.029,27.6756,0,0.000885,0,0
0:2:9.032,493.601,27.9307,0,0.000885,0,0
0:2:9.837,496.066,28.0686,0,0.000885,0,0
0:2:10.638,500.581,28.3306,0,0.000885,0,0
0:2:11.446,503.868,28.5098,0,0.000885,0,0
0:2:12.241,507.266,28.7029,0,0.000885,0,0
0:2:13.039,511.199,28.9304,0,0.000885,0,0
0:2:13.840,515.126,29.151,0,0.000885,0,0
0:2:14.641,518.293,29.3303,0,0.000885,0,0
0:2:15.444,521.403,29.5027,0,0.000885,0,0
0:2:16.252,525.041,29.7095,0,0.000885,0,0
0:2:17.046,528.733,29.9232,0,0.000885,0,0
0:2:17.851,531.843,30.0956,0,0.000885,0,0
0:2:18.652,535.361,30.2956,0,0.000885,0,0
0:2:19.456,539.351,30.5231,0,0.000885,0,0
0:2:20.257,542.75,30.7161,0,0.000885,0,0
0:2:21.045,546.562,30.9299,0,0.000885,0,0
0:2:21.848,549.44,31.0885,0,0.000885,0,0
0:2:22.656,553.132,31.3022,0,0.000885,0,0
0:2:23.448,557.238,31.5366,0,0.000885,0,0
0:2:24.257,560.992,31.7435,0,0.000885,0,0
0:2:25.059,564.275,31.9296,0,0.000885,0,0
0:2:25.854,567.62,32.1227,0,0.000885,0,0
0:2:26.643,570.671,32.295,0,0.000885,0,0
0:2:27.443,574.012,32.4812,0,0.000885,0,0
0:2:28.235,577.824,32.6949,0,0.000885,0,0
0:2:29.037,581.52,32.9087,0,0.000885,0,0
0:2:29.842,585.333,33.1224,0,0.000885,0,0
0:2:30.643,589.26,33.343,0,0.000885,0,0
0:2:31.433,591.845,33.4947,0,0.000885,0,0
0:2:32.229,595.835,33.7154,0,0.000885,0,0
0:2:33.049,599.651,33.936,0,0.000885,0,0
0:2:33.845,603.29,34.1359,0,0.000885,0,0
0:2:34.647,606.813,34.3359,0,0.000885,0,0
0:2:35.455,609.807,34.5083,0,0.000885,0,0
0:2:36.255,613.21,34.7013,0,0.000885,0,0
0:2:37.045,616.733,34.9013,0,0.000885,0,0
0:2:37.843,619.958,35.0805,0,0.000885,0,0
0:2:38.654,624.481,35.3356,0,0.000885,0,0
0:2:39.463,627.297,35.5011,0,0.000885,0,0
0:2:40.270,630.936,35.7011,0,0.000885,0,0
0:2:41.065,634.574,35.9079,0,0.000885,0,0
0:2:41.860,638.569,36.1354,0,0.000885,0,0
0:2:42.653,641.678,36.3147,0,0.000885,0,0
0:2:43.447,645.201,36.5077,0,0.000885,0,0
0:2:44.247,649.076,36.7284,0,0.000885,0,0
0:2:45.056,652.536,36.9283,0,0.000885,0,0
0:2:45.851,655.53,37.0938,0,0.000885,0,0
0:2:46.661,658.875,37.2868,0,0.000885,0,0
0:2:47.451,662.749,37.5075,0,0.000885,0,0
0:2:48.248,666.45,37.7143,0,0.000885,0,0
0:2:49.049,669.738,37.9005,0,0.000885,0,0
0:2:49.860,673.55,38.1142,0,0.000885,0,0
0:2:50.664,676.957,38.3073,0,0.000885,0,0
0:2:51.458,680.48,38.5072,0,0.000885,0,0
0:2:52.254,684.292,38.721,0,0.000885,0,0
0:2:53.043,687.873,38.9278,0,0.000885,0,0
0:2:53.852,691.454,39.1277,0,0.000885,0,0
0:2:54.662,694.977,39.3277,0,0.000885,0,0
0:2:55.465,697.677,39.4794,0,0.000885,0,0
0:2:56.260,701.436,39.6931,0,0.000885,0,0
0:2:57.055,705.368,39.9137,0,0.000885,0,0
0:2:57.861,708.713,40.1068,0,0.000885,0,0
0:2:58.649,712.178,40.2999,0,0.000885,0,0
0:2:59.460,715.754,40.5067,0,0.000885,0,0
0:3:0.263,719.513,40.7135,0,0.000885,0,0
0:3:1.057,722.916,40.9066,0,0.000885,0,0
0:3:1.849,726.439,41.1065,0,0.000885,0,0
0:3:2.646,730.02,41.3134,0,0.000885,0,0
0:3:3.439,732.778,41.4651,0,0.000885,0,0
0:3:4.236,736.537,41.6788,0,0.000885,0,0
0:3:5.045,740.411,41.8994,0,0.000885,0,0
0:3:5.845,743.698,42.0856,0,0.000885,0,0
0:3:6.642,746.514,42.2442,0,0.000885,0,0
0:3:7.435,749.45,42.4097,0,0.000885,0,0
0:3:8.242,752.443,42.582,0,0.000885,0,0
0:3:9.041,753.853,42.6579,0,0.000885,0,0
0:3:9.850,754.734,42.7061,0,0.000885,0,0
0:3:10.657,756.963,42.8371,0,0.000885,0,0
0:3:11.461,759.196,42.9612,0,0.000885,0,0
0:3:12.262,752.092,42.5613,0,0.000885,0,0
0:3:13.052,732.72,41.4651,0,0.000885,0,0
0:3:13.845,701.667,39.7069,0,0.000885,0,0
0:3:14.129,624.597,35.3425,0,0.000885,0,0