File: DataFile2021-07-17_061707.csv
Test ID:,Date Tested:,Time:,Test Type:,Diameter Avg. (mm):,Cyl. Corr. Factor:,Height (mm):,Age (days):,Weight (kN):,Break Type:,Ramp Rate (MPa/s):,Load at Break (kN):,Stress at Break (MPa):
12,7/17/2021,06:17,Cylinder,100,1,200,0,3.6,Invalid/No Break,0.23,453.6,57.76
Sample Time,Load (kN),Stress (MPa),Long. Strain,Trans. Strain,Chan1 Deflection (mm),Chan2 Deflection (mm)
0:0:8.166,5.15994,0.655002,0,0.000885,0,0
0:0:9.267,7.62425,0.972161,0,0.000885,0,0
0:0:10.359,9.03434,1.15142,0,0.000885,0,0
0:0:11.452,10.9693,1.39964,0,0.000885,0,0
0:0:12.547,13.0778,1.66853,0,0.000885,0,0
0:0:13.663,15.8357,2.01327,0,0.000885,0,0
0:0:14.776,18.0064,2.29595,0,0.000885,0,0
0:0:15.874,20.057,2.55106,0,0.000885,0,0
0:0:16.968,22.637,2.88201,0,0.000885,0,0
0:0:18.060,25.1591,3.20606,0,0.000885,0,0
0:0:19.176,26.9785,3.43359,0,0.000885,0,0
0:0:20.287,28.7978,3.66801,0,0.000885,0,0
0:0:21.383,31.0842,3.95759,0,0.000885,0,0
0:0:22.478,33.8421,4.30922,0,0.000885,0,0
0:0:23.574,35.2477,4.48849,0,0.000885,0,0
0:0:24.686,36.8313,4.68843,0,0.000885,0,0
0:0:25.786,40.3498,5.13659,0,0.000885,0,0
0:0:26.882,42.1113,5.36412,0,0.000885,0,0
0:0:27.977,43.8105,5.57786,0,0.000885,0,0
0:0:29.082,46.217,5.88123,0,0.000885,0,0
0:0:30.185,48.2677,6.14323,0,0.000885,0,0
0:0:31.280,50.4962,6.43281,0,0.000885,0,0
0:0:32.376,52.9027,6.73618,0,0.000885,0,0
0:0:33.471,55.0156,7.00507,0,0.000885,0,0
0:0:34.585,56.5992,7.20502,0,0.000885,0,0
0:0:35.686,59.6462,7.59113,0,0.000885,0,0
0:0:36.777,61.1719,7.79108,0,0.000885,0,0
0:0:37.871,63.6363,8.10134,0,0.000885,0,0
0:0:38.976,65.5134,8.34266,0,0.000885,0,0
0:0:40.086,67.7998,8.63224,0,0.000885,0,0
0:0:41.182,69.6769,8.87355,0,0.000885,0,0
0:0:42.276,72.1413,9.18382,0,0.000885,0,0
0:0:43.370,74.2497,9.45271,0,0.000885,0,0
0:0:44.480,76.6562,9.76298,0,0.000885,0,0
0:0:45.584,78.649,10.0112,0,0.000885,0,0
0:0:46.678,80.6463,10.2663,0,0.000885,0,0
0:0:47.773,83.0483,10.5766,0,0.000885,0,0
0:0:48.878,85.0411,10.8248,0,0.000885,0,0
0:0:49.989,87.3319,11.1212,0,0.000885,0,0
0:0:51.083,89.3826,11.3832,0,0.000885,0,0
0:0:52.176,91.3754,11.6315,0,0.000885,0,0
0:0:53.270,93.6084,11.921,0,0.000885,0,0
0:0:54.381,96.3618,12.2727,0,0.000885,0,0
0:0:55.485,98.0655,12.4864,0,0.000885,0,0
0:0:56.582,99.7069,12.6932,0,0.000885,0,0
0:0:57.677,101.993,12.9828,0,0.000885,0,0
0:0:58.772,104.164,13.2655,0,0.000885,0,0
0:0:59.886,106.566,13.5689,0,0.000885,0,0
0:1:0.982,109.324,13.9205,0,0.000885,0,0
0:1:2.076,110.672,14.0929,0,0.000885,0,0
0:1:3.172,113.194,14.41,0,0.000885,0,0
0:1:4.286,115.543,14.7134,0,0.000885,0,0
0:1:5.391,116.948,14.8927,0,0.000885,0,0
0:1:6.485,119.764,15.2512,0,0.000885,0,0
0:1:7.578,121.757,15.4994,0,0.000885,0,0
0:1:8.678,124.163,15.8097,0,0.000885,0,0
0:1:9.788,126.276,16.0786,0,0.000885,0,0
0:1:10.883,128.563,16.3682,0,0.000885,0,0
0:1:11.980,130.204,16.575,0,0.000885,0,0
0:1:13.075,132.432,16.8646,0,0.000885,0,0
0:1:14.182,135.19,17.2162,0,0.000885,0,0
0:1:15.287,137.361,17.492,0,0.000885,0,0
0:1:16.379,138.825,17.6782,0,0.000885,0,0
0:1:17.472,140.995,17.9539,0,0.000885,0,0
0:1:18.570,143.46,18.2642,0,0.000885,0,0
0:1:19.680,145.746,18.5538,0,0.000885,0,0
0:1:20.781,148.032,18.8503,0,0.000885,0,0
0:1:21.875,149.322,19.0157,0,0.000885,0,0
0:1:22.980,152.258,19.3881,0,0.000885,0,0
0:1:24.086,154.78,19.7052,0,0.000885,0,0
0:1:25.189,155.835,19.8431,0,0.000885,0,0
0:1:26.283,158.766,20.2154,0,0.000885,0,0
0:1:27.380,160.643,20.4567,0,0.000885,0,0
0:1:28.475,162.52,20.6912,0,0.000885,0,0
0:1:29.588,165.158,21.029,0,0.000885,0,0
0:1:30.689,166.92,21.2496,0,0.000885,0,0
0:1:31.782,169.326,21.5599,0,0.000885,0,0
0:1:32.874,171.025,21.7736,0,0.000885,0,0
0:1:33.976,173.721,22.1184,0,0.000885,0,0
0:1:35.086,175.66,22.3666,0,0.000885,0,0
0:1:36.181,177.827,22.6424,0,0.000885,0,0
0:1:37.277,180.878,23.0285,0,0.000885,0,0
0:1:38.380,181.874,23.1595,0,0.000885,0,0
0:1:39.494,183.636,23.3801,0,0.000885,0,0
0:1:40.590,186.389,23.7318,0,0.000885,0,0
0:1:41.683,189.032,24.0696,0,0.000885,0,0
0:1:42.777,191.318,24.3592,0,0.000885,0,0
0:1:43.880,192.666,24.5315,0,0.000885,0,0
0:1:44.983,195.014,24.828,0,0.000885,0,0
0:1:46.081,197.71,25.1728,0,0.000885,0,0
0:1:47.175,199,25.3382,0,0.000885,0,0
0:1:48.269,202.167,25.7381,0,0.000885,0,0
0:1:49.372,203.457,25.9036,0,0.000885,0,0
0:1:50.463,205.512,26.1656,0,0.000885,0,0
0:1:51.560,208.444,26.5379,0,0.000885,0,0
0:1:52.678,210.263,26.7723,0,0.000885,0,0
0:1:53.762,212.727,27.0826,0,0.000885,0,0
0:1:54.869,214.311,27.2894,0,0.000885,0,0
0:1:55.973,216.771,27.5997,0,0.000885,0,0
0:1:57.076,218.999,27.8824,0,0.000885,0,0
0:1:58.159,220.525,28.0755,0,0.000885,0,0
0:1:59.263,223.456,28.4547,0,0.000885,0,0
0:2:0.368,225.454,28.7029,0,0.000885,0,0
0:2:1.474,227.682,28.9925,0,0.000885,0,0
0:2:2.560,230.084,29.2958,0,0.000885,0,0
0:2:3.667,231.552,29.482,0,0.000885,0,0
0:2:4.774,233.959,29.7854,0,0.000885,0,0
0:2:5.868,236.481,30.1094,0,0.000885,0,0
0:2:6.978,238.825,30.4059,0,0.000885,0,0
0:2:8.071,240.702,30.6472,0,0.000885,0,0
0:2:9.178,242.931,30.9299,0,0.000885,0,0
0:2:10.278,244.924,31.185,0,0.000885,0,0
0:2:11.382,246.743,31.4194,0,0.000885,0,0
0:2:12.478,249.559,31.7779,0,0.000885,0,0
0:2:13.576,251.378,32.0055,0,0.000885,0,0
0:2:14.682,253.78,32.3157,0,0.000885,0,0
0:2:15.775,254.776,32.4398,0,0.000885,0,0
0:2:16.868,257.65,32.8053,0,0.000885,0,0
0:2:17.971,259.878,33.0879,0,0.000885,0,0
0:2:19.082,262.579,33.4327,0,0.000885,0,0
0:2:20.185,263.984,33.6119,0,0.000885,0,0
0:2:21.271,266.448,33.9222,0,0.000885,0,0
0:2:22.365,268.619,34.2049,0,0.000885,0,0
0:2:23.454,270.612,34.4531,0,0.000885,0,0
0:2:24.558,272.316,34.6737,0,0.000885,0,0
0:2:25.648,274.602,34.9633,0,0.000885,0,0
0:2:26.735,277.769,35.3632,0,0.000885,0,0
0:2:27.823,279.526,35.5907,0,0.000885,0,0
0:2:28.920,281.11,35.7907,0,0.000885,0,0
0:2:30.022,284.046,36.163,0,0.000885,0,0
0:2:31.108,285.861,36.3974,0,0.000885,0,0
0:2:32.191,287.738,36.6387,0,0.000885,0,0
0:2:33.274,289.793,36.9007,0,0.000885,0,0
0:2:34.381,292.551,37.2455,0,0.000885,0,0
0:2:35.473,294.308,37.473,0,0.000885,0,0
0:2:36.570,296.594,37.7626,0,0.000885,0,0
0:2:37.675,298.178,37.9625,0,0.000885,0,0
0:2:38.772,301.407,38.3762,0,0.000885,0,0
0:2:39.880,302.283,38.4865,0,0.000885,0,0
0:2:40.986,305.099,38.8451,0,0.000885,0,0
0:2:42.083,307.385,39.1346,0,0.000885,0,0
0:2:43.180,310.028,39.4725,0,0.000885,0,0
0:2:44.285,311.318,39.638,0,0.000885,0,0
0:2:45.375,313.604,39.9275,0,0.000885,0,0
0:2:46.472,316.126,40.2516,0,0.000885,0,0
0:2:47.557,318.533,40.555,0,0.000885,0,0
0:2:48.657,319.881,40.7273,0,0.000885,0,0
0:2:49.760,322.051,41.0031,0,0.000885,0,0
0:2:50.848,324.747,41.3479,0,0.000885,0,0
0:2:51.936,326.624,41.5892,0,0.000885,0,0
0:2:53.023,328.323,41.8029,0,0.000885,0,0
0:2:54.123,331.201,42.1683,0,0.000885,0,0
0:2:55.223,332.843,42.3821,0,0.000885,0,0
0:2:56.307,335.307,42.6923,0,0.000885,0,0
0:2:57.391,336.77,42.8785,0,0.000885,0,0
0:2:58.485,339.35,43.2094,0,0.000885,0,0
0:2:59.589,341.641,43.499,0,0.000885,0,0
0:3:0.675,343.807,43.7748,0,0.000885,0,0
0:3:1.783,346.33,44.0989,0,0.000885,0,0
0:3:2.868,348.327,44.3471,0,0.000885,0,0
0:3:3.978,350.084,44.5746,0,0.000885,0,0
0:3:5.088,352.077,44.8297,0,0.000885,0,0
0:3:6.184,354.661,45.1538,0,0.000885,0,0
0:3:7.281,356.418,45.3813,0,0.000885,0,0
0:3:8.381,358.94,45.6985,0,0.000885,0,0
0:3:9.488,361.227,45.9949,0,0.000885,0,0
0:3:10.578,363.34,46.2638,0,0.000885,0,0
0:3:11.674,365.51,46.5396,0,0.000885,0,0
0:3:12.778,367.503,46.7947,0,0.000885,0,0
0:3:13.875,369.496,47.0429,0,0.000885,0,0
0:3:14.976,371.435,47.2911,0,0.000885,0,0
0:3:16.064,374.309,47.6566,0,0.000885,0,0
0:3:17.151,376.008,47.8772,0,0.000885,0,0
0:3:18.240,378.237,48.1599,0,0.000885,0,0
0:3:19.347,380.643,48.4632,0,0.000885,0,0
0:3:20.435,381.991,48.6356,0,0.000885,0,0
0:3:21.522,384.393,48.9459,0,0.000885,0,0
0:3:22.611,386.684,49.2355,0,0.000885,0,0
0:3:23.711,389.206,49.5526,0,0.000885,0,0
0:3:24.813,391.55,49.856,0,0.000885,0,0
0:3:25.896,393.134,50.0559,0,0.000885,0,0
0:3:26.979,395.482,50.3524,0,0.000885,0,0
0:3:28.075,397.124,50.5661,0,0.000885,0,0
0:3:29.179,399.762,50.8971,0,0.000885,0,0
0:3:30.275,401.523,51.1246,0,0.000885,0,0
0:3:31.372,403.516,51.3797,0,0.000885,0,0
0:3:32.458,405.86,51.6762,0,0.000885,0,0
0:3:33.547,407.973,51.9451,0,0.000885,0,0
0:3:34.652,410.317,52.2416,0,0.000885,0,0
0:3:35.741,412.315,52.4967,0,0.000885,0,0
0:3:36.828,414.659,52.7932,0,0.000885,0,0
0:3:37.913,417.065,53.1034,0,0.000885,0,0
0:3:39.022,418.587,53.2965,0,0.000885,0,0
0:3:40.117,421.051,53.6067,0,0.000885,0,0
0:3:41.203,423.279,53.8963,0,0.000885,0,0
0:3:42.289,424.863,54.0963,0,0.000885,0,0
0:3:43.376,426.798,54.3445,0,0.000885,0,0
0:3:44.480,428.617,54.572,0,0.000885,0,0
0:3:45.579,431.139,54.8961,0,0.000885,0,0
0:3:46.675,432.901,55.1167,0,0.000885,0,0
0:3:47.781,435.423,55.4407,0,0.000885,0,0
0:3:48.887,437.122,55.6545,0,0.000885,0,0
0:3:49.987,439.173,55.9165,0,0.000885,0,0
0:3:51.081,440.699,56.1095,0,0.000885,0,0
0:3:52.189,442.576,56.3509,0,0.000885,0,0
0:3:53.285,444.044,56.537,0,0.000885,0,0
0:3:54.387,445.863,56.7714,0,0.000885,0,0
0:3:55.473,448.149,57.061,0,0.000885,0,0
0:3:56.561,450.142,57.3161,0,0.000885,0,0
0:3:57.649,450.845,57.4057,0,0.000885,0,0
0:3:58.745,452.019,57.5505,0,0.000885,0,0
0:3:59.843,452.664,57.6333,0,0.000885,0,0
0:4:0.928,453.487,57.7367,0,0.000885,0,0
0:4:2.011,453.252,57.7091,0,0.000885,0,0
0:4:3.096,452.842,57.6609,0,0.000885,0,0
0:4:4.197,451.962,57.5436,0,0.000885,0,0
0:4:5.291,450.614,57.3713,0,0.000885,0,0
0:4:6.394,448.501,57.1024,0,0.000885,0,0
0:4:7.475,428.853,54.6065,0,0.000885,0,0
0:4:8.436,339.88,43.2715,0,0.000885,0,0