File: DataFile2021-06-29_071719.csv
Test ID:,Date Tested:,Time:,Test Type:,Diameter Avg. (mm):,Cyl. Corr. Factor:,Height (mm):,Age (days):,Weight (kN):,Break Type:,Ramp Rate (MPa/s):,Load at Break (kN):,Stress at Break (MPa):
12,6/29/2021,07:17,Cylinder,100,1,200,0,3.6,3,0.24,368.91,46.97
Sample Time,Load (kN),Stress (MPa),Long. Strain,Trans. Strain,Chan1 Deflection (mm),Chan2 Deflection (mm)
0:0:15.859,5.98286,0.758423,0,0.000885,0,0
0:0:16.668,13.5493,1.72369,0,0.000885,0,0
0:0:17.471,13.0199,1.65474,0,0.000885,0,0
0:0:18.262,12.9043,1.64095,0,0.000885,0,0
0:0:19.067,12.4906,1.59269,0,0.000885,0,0
0:0:19.856,12.5529,1.59958,0,0.000885,0,0
0:0:20.661,13.5493,1.72369,0,0.000885,0,0
0:0:21.472,15.6577,1.99258,0,0.000885,0,0
0:0:22.282,17.8863,2.27527,0,0.000885,0,0
0:0:23.083,19.9414,2.53727,0,0.000885,0,0
0:0:23.881,21.4093,2.72343,0,0.000885,0,0
0:0:24.678,22.6993,2.8889,0,0.000885,0,0
0:0:25.474,24.2828,3.08885,0,0.000885,0,0
0:0:26.272,25.2214,3.21296,0,0.000885,0,0
0:0:27.082,26.5692,3.38533,0,0.000885,0,0
0:0:27.888,28.74,3.66112,0,0.000885,0,0
0:0:28.681,30.9107,3.93691,0,0.000885,0,0
0:0:29.481,32.3163,4.11617,0,0.000885,0,0
0:0:30.274,33.6063,4.28164,0,0.000885,0,0
0:0:31.073,35.1899,4.48159,0,0.000885,0,0
0:0:31.875,36.4799,4.64707,0,0.000885,0,0
0:0:32.682,37.5964,4.78496,0,0.000885,0,0
0:0:33.484,39.9406,5.08833,0,0.000885,0,0
0:0:34.277,41.582,5.29517,0,0.000885,0,0
0:0:35.075,42.7563,5.44686,0,0.000885,0,0
0:0:35.865,44.1619,5.62612,0,0.000885,0,0
0:0:36.677,46.0391,5.86054,0,0.000885,0,0
0:0:37.484,47.6849,6.07428,0,0.000885,0,0
0:0:38.282,49.442,6.29491,0,0.000885,0,0
0:0:39.077,50.1448,6.38455,0,0.000885,0,0
0:0:39.876,52.6669,6.7086,0,0.000885,0,0
0:0:40.672,54.077,6.88786,0,0.000885,0,0
0:0:41.470,55.4248,7.06023,0,0.000885,0,0
0:0:42.280,56.3634,7.17744,0,0.000885,0,0
0:0:43.081,58.7076,7.47392,0,0.000885,0,0
0:0:43.878,60.1177,7.65318,0,0.000885,0,0
0:0:44.673,61.5812,7.83934,0,0.000885,0,0
0:0:45.472,62.9334,8.01171,0,0.000885,0,0
0:0:46.275,65.5712,8.34955,0,0.000885,0,0
0:0:47.086,66.0383,8.4116,0,0.000885,0,0
0:0:47.894,68.1512,8.6805,0,0.000885,0,0
0:0:48.687,69.4412,8.83908,0,0.000885,0,0
0:0:49.486,70.789,9.01145,0,0.000885,0,0
0:0:50.280,72.9019,9.28034,0,0.000885,0,0
0:0:51.080,73.9561,9.41824,0,0.000885,0,0
0:0:51.891,76.3048,9.71471,0,0.000885,0,0
0:0:52.696,77.3012,9.84571,0,0.000885,0,0
0:0:53.490,79.3563,10.1008,0,0.000885,0,0
0:0:54.285,80.0013,10.1836,0,0.000885,0,0
0:0:55.084,82.2877,10.48,0,0.000885,0,0
0:0:55.877,83.8134,10.6731,0,0.000885,0,0
0:0:56.685,85.5126,10.8868,0,0.000885,0,0
0:0:57.492,86.9183,11.0661,0,0.000885,0,0
0:0:58.293,88.6797,11.2936,0,0.000885,0,0
0:0:59.086,90.1477,11.4798,0,0.000885,0,0
0:0:59.885,91.3754,11.6315,0,0.000885,0,0
0:1:0.679,93.0212,11.8452,0,0.000885,0,0
0:1:1.478,94.3112,12.0107,0,0.000885,0,0
0:1:2.288,96.4819,12.2865,0,0.000885,0,0
0:1:3.089,97.0646,12.3623,0,0.000885,0,0
0:1:3.886,99.2354,12.6381,0,0.000885,0,0
0:1:4.680,101.642,12.9415,0,0.000885,0,0
0:1:5.477,102.229,13.0173,0,0.000885,0,0
0:1:6.271,104.044,13.2448,0,0.000885,0,0
0:1:7.082,105.627,13.4517,0,0.000885,0,0
0:1:7.888,107.567,13.693,0,0.000885,0,0
0:1:8.685,108.27,13.7826,0,0.000885,0,0
0:1:9.481,110.614,14.086,0,0.000885,0,0
0:1:10.276,111.788,14.2308,0,0.000885,0,0
0:1:11.073,113.372,14.4376,0,0.000885,0,0
0:1:11.882,115.307,14.6789,0,0.000885,0,0
0:1:12.687,116.13,14.7893,0,0.000885,0,0
0:1:13.481,118.416,15.0788,0,0.000885,0,0
0:1:14.279,119.648,15.2305,0,0.000885,0,0
0:1:15.080,121.405,15.458,0,0.000885,0,0
0:1:15.878,122.815,15.6373,0,0.000885,0,0
0:1:16.682,124.221,15.8166,0,0.000885,0,0
0:1:17.489,126.334,16.0855,0,0.000885,0,0
0:1:18.289,128.033,16.2992,0,0.000885,0,0
0:1:19.081,129.15,16.444,0,0.000885,0,0
0:1:19.878,130.204,16.575,0,0.000885,0,0
0:1:20.669,132.197,16.8301,0,0.000885,0,0
0:1:21.480,133.549,17.0025,0,0.000885,0,0
0:1:22.290,135.542,17.2576,0,0.000885,0,0
0:1:23.094,137.241,17.4713,0,0.000885,0,0
0:1:23.888,139.176,17.7195,0,0.000885,0,0
0:1:24.684,140.408,17.8781,0,0.000885,0,0
0:1:25.480,141.76,18.0505,0,0.000885,0,0
0:1:26.279,143.166,18.2297,0,0.000885,0,0
0:1:27.088,144.928,18.4504,0,0.000885,0,0
0:1:27.889,146.391,18.6365,0,0.000885,0,0
0:1:28.689,148.562,18.9123,0,0.000885,0,0
0:1:29.480,149.558,19.0433,0,0.000885,0,0
0:1:30.278,150.675,19.1812,0,0.000885,0,0
0:1:31.069,152.783,19.4501,0,0.000885,0,0
0:1:31.882,154.251,19.6432,0,0.000885,0,0
0:1:32.689,156.07,19.8707,0,0.000885,0,0
0:1:33.484,157.712,20.0775,0,0.000885,0,0
0:1:34.281,158.65,20.2016,0,0.000885,0,0
0:1:35.071,160.701,20.4636,0,0.000885,0,0
0:1:35.874,162.284,20.6636,0,0.000885,0,0
0:1:36.686,163.517,20.8222,0,0.000885,0,0
0:1:37.491,165.1,21.0221,0,0.000885,0,0
0:1:38.291,167.565,21.3324,0,0.000885,0,0
0:1:39.089,169.148,21.5392,0,0.000885,0,0
0:1:39.885,170.144,21.6633,0,0.000885,0,0
0:1:40.678,171.377,21.8219,0,0.000885,0,0
0:1:41.477,173.957,22.146,0,0.000885,0,0
0:1:42.287,174.659,22.2356,0,0.000885,0,0
0:1:43.093,176.537,22.4769,0,0.000885,0,0
0:1:43.886,178.182,22.6838,0,0.000885,0,0
0:1:44.684,179.882,22.9044,0,0.000885,0,0
0:1:45.478,181.35,23.0905,0,0.000885,0,0
0:1:46.287,182.933,23.2905,0,0.000885,0,0
0:1:47.097,183.987,23.4284,0,0.000885,0,0
0:1:47.897,185.277,23.587,0,0.000885,0,0
0:1:48.698,188.151,23.9593,0,0.000885,0,0
0:1:49.488,189.383,24.111,0,0.000885,0,0
0:1:50.287,190.379,24.242,0,0.000885,0,0
0:1:51.080,191.963,24.4419,0,0.000885,0,0
0:1:51.887,193.724,24.6625,0,0.000885,0,0
0:1:52.689,194.427,24.7522,0,0.000885,0,0
0:1:53.480,196.656,25.0418,0,0.000885,0,0
0:1:54.279,198.533,25.2762,0,0.000885,0,0
0:1:55.078,200.468,25.5244,0,0.000885,0,0
0:1:55.876,201.229,25.6209,0,0.000885,0,0
0:1:56.670,202.99,25.8484,0,0.000885,0,0
0:1:57.471,203.987,25.9726,0,0.000885,0,0
0:1:58.266,206.273,26.2621,0,0.000885,0,0
0:1:59.068,207.096,26.3656,0,0.000885,0,0
0:1:59.865,209.324,26.6551,0,0.000885,0,0
0:2:0.667,211.259,26.8964,0,0.000885,0,0
0:2:1.476,212.434,27.0481,0,0.000885,0,0
0:2:2.279,214.662,27.3308,0,0.000885,0,0
0:2:3.083,215.659,27.4618,0,0.000885,0,0
0:2:3.870,216.949,27.6204,0,0.000885,0,0
0:2:4.672,218.826,27.8617,0,0.000885,0,0
0:2:5.469,219.529,27.9513,0,0.000885,0,0
0:2:6.262,221.935,28.2547,0,0.000885,0,0
0:2:7.066,223.692,28.4822,0,0.000885,0,0
0:2:7.865,224.222,28.5512,0,0.000885,0,0
0:2:8.656,227.562,28.9718,0,0.000885,0,0
0:2:9.463,228.269,29.0614,0,0.000885,0,0
0:2:10.273,229.969,29.282,0,0.000885,0,0
0:2:11.062,230.907,29.3992,0,0.000885,0,0
0:2:11.865,233.251,29.6957,0,0.000885,0,0
0:2:12.666,234.719,29.8888,0,0.000885,0,0
0:2:13.470,236.361,30.0956,0,0.000885,0,0
0:2:14.278,237.709,30.268,0,0.000885,0,0
0:2:15.079,239.648,30.5093,0,0.000885,0,0
0:2:15.878,241.169,30.7092,0,0.000885,0,0
0:2:16.683,241.876,30.7989,0,0.000885,0,0
0:2:17.486,244.043,31.0747,0,0.000885,0,0
0:2:18.280,245.337,31.2401,0,0.000885,0,0
0:2:19.082,247.036,31.4539,0,0.000885,0,0
0:2:19.875,248.62,31.6538,0,0.000885,0,0
0:2:20.669,250.733,31.9227,0,0.000885,0,0
0:2:21.478,251.671,32.0468,0,0.000885,0,0
0:2:22.280,253.251,32.2468,0,0.000885,0,0
0:2:23.074,255.128,32.4812,0,0.000885,0,0
0:2:23.881,256.129,32.6122,0,0.000885,0,0
0:2:24.685,257.943,32.8397,0,0.000885,0,0
0:2:25.469,259.233,33.0052,0,0.000885,0,0
0:2:26.265,260.817,33.2052,0,0.000885,0,0
0:2:27.070,262.814,33.4603,0,0.000885,0,0
0:2:27.874,264.336,33.6533,0,0.000885,0,0
0:2:28.675,265.568,33.8119,0,0.000885,0,0
0:2:29.482,266.684,33.9567,0,0.000885,0,0
0:2:30.276,268.561,34.1911,0,0.000885,0,0
0:2:31.085,270.612,34.4531,0,0.000885,0,0
0:2:31.890,272.489,34.6944,0,0.000885,0,0
0:2:32.691,274.486,34.9495,0,0.000885,0,0
0:2:33.477,275.483,35.0736,0,0.000885,0,0
0:2:34.269,277.591,35.3425,0,0.000885,0,0
0:2:35.065,278.121,35.4115,0,0.000885,0,0
0:2:35.867,280.291,35.6873,0,0.000885,0,0
0:2:36.665,280.701,35.7424,0,0.000885,0,0
0:2:37.468,283.107,36.0458,0,0.000885,0,0
0:2:38.272,284.864,36.2733,0,0.000885,0,0
0:2:39.070,286.332,36.4595,0,0.000885,0,0
0:2:39.864,288.031,36.6732,0,0.000885,0,0
0:2:40.670,289.09,36.8111,0,0.000885,0,0
0:2:41.474,290.789,37.0248,0,0.000885,0,0
0:2:42.281,292.551,37.2455,0,0.000885,0,0
0:2:43.076,294.25,37.4661,0,0.000885,0,0
0:2:43.866,295.949,37.6798,0,0.000885,0,0
0:2:44.655,297.181,37.8384,0,0.000885,0,0
0:2:45.447,298.885,38.0522,0,0.000885,0,0
0:2:46.234,300.233,38.2245,0,0.000885,0,0
0:2:47.040,302.11,38.4659,0,0.000885,0,0
0:2:47.843,303.693,38.6658,0,0.000885,0,0
0:2:48.633,305.393,38.8864,0,0.000885,0,0
0:2:49.424,307.034,39.0933,0,0.000885,0,0
0:2:50.211,307.915,39.2036,0,0.000885,0,0
0:2:51.003,309.792,39.4449,0,0.000885,0,0
0:2:51.807,311.727,39.6931,0,0.000885,0,0
0:2:52.608,313.253,39.8862,0,0.000885,0,0
0:2:53.395,314.191,40.0034,0,0.000885,0,0
0:2:54.188,316.011,40.2378,0,0.000885,0,0
0:2:54.984,317.474,40.424,0,0.000885,0,0
0:2:55.775,319.178,40.6377,0,0.000885,0,0
0:2:56.582,320.761,40.8376,0,0.000885,0,0
0:2:57.385,322.696,41.0859,0,0.000885,0,0
0:2:58.190,324.16,41.272,0,0.000885,0,0
0:2:58.977,325.392,41.4306,0,0.000885,0,0
0:2:59.769,326.74,41.603,0,0.000885,0,0
0:3:0.557,328.265,41.796,0,0.000885,0,0
0:3:1.349,330.027,42.0235,0,0.000885,0,0
0:3:2.154,331.846,42.2511,0,0.000885,0,0
0:3:2.955,333.252,42.4303,0,0.000885,0,0
0:3:3.740,335.013,42.6579,0,0.000885,0,0
0:3:4.532,336.361,42.8233,0,0.000885,0,0
0:3:5.322,336.891,42.8923,0,0.000885,0,0
0:3:6.115,339.408,43.2163,0,0.000885,0,0
0:3:6.920,341.228,43.4439,0,0.000885,0,0
0:3:7.715,342.46,43.6024,0,0.000885,0,0
0:3:8.507,344.395,43.8507,0,0.000885,0,0
0:3:9.294,345.627,44.0092,0,0.000885,0,0
0:3:10.086,346.917,44.1678,0,0.000885,0,0
0:3:10.880,348.558,44.3816,0,0.000885,0,0
0:3:11.687,350.026,44.5677,0,0.000885,0,0
0:3:12.487,351.432,44.747,0,0.000885,0,0
0:3:13.287,352.957,44.94,0,0.000885,0,0
0:3:14.087,355.244,45.2296,0,0.000885,0,0
0:3:14.875,356.712,45.4158,0,0.000885,0,0
0:3:15.677,358.18,45.6019,0,0.000885,0,0
0:3:16.480,359.705,45.8019,0,0.000885,0,0
0:3:17.287,361.347,46.0087,0,0.000885,0,0
0:3:18.078,362.343,46.1328,0,0.000885,0,0
0:3:18.873,364.042,46.3535,0,0.000885,0,0
0:3:19.671,365.92,46.5879,0,0.000885,0,0
0:3:20.471,366.507,46.6637,0,0.000885,0,0
0:3:21.069,368.033,46.8568,0,0.000885,0,0
0:3:21.873,368.678,46.9395,0,0.000885,0,0
0:3:22.666,368.793,46.9533,0,0.000885,0,0
0:3:23.460,367.561,46.8016,0,0.000885,0,0
0:3:24.246,362.695,46.1811,0,0.000885,0,0
0:3:25.036,326.566,41.5823,0,0.000885,0,0
0:3:25.529,270.67,34.46,0,0.000885,0,0