File: DataFile2021-06-06_070553.csv
Test ID:,Date Tested:,Time:,Test Type:,Diameter Avg. (mm):,Cyl. Corr. Factor:,Height (mm):,Age (days):,Weight (kN):,Break Type:,Ramp Rate (MPa/s):,Load at Break (kN):,Stress at Break (MPa):
12,6/6/2021,07:05,Cylinder,150,1,300,0,13.39,3,0.25,1736.4,98.26
Sample Time,Load (kN),Stress (MPa),Long. Strain,Trans. Strain,Chan1 Deflection (mm),Chan2 Deflection (mm)
0:0:15.972,7.97566,0.448159,0,0.000885,0,0
0:0:17.659,16.1871,0.917003,0,0.000885,0,0
0:0:19.345,19.2386,1.08937,0,0.000885,0,0
0:0:21.038,28.5042,1.61337,0,0.000885,0,0
0:0:22.755,36.0128,2.04085,0,0.000885,0,0
0:0:24.446,43.2856,2.44764,0,0.000885,0,0
0:0:26.140,50.3227,2.84753,0,0.000885,0,0
0:0:27.856,57.947,3.2819,0,0.000885,0,0
0:0:29.547,65.162,3.6887,0,0.000885,0,0
0:0:31.243,73.3111,4.15064,0,0.000885,0,0
0:0:32.956,80.1747,4.53675,0,0.000885,0,0
0:0:34.649,88.2082,4.9918,0,0.000885,0,0
0:0:36.344,95.7747,5.41928,0,0.000885,0,0
0:0:38.055,103.168,5.83986,0,0.000885,0,0
0:0:39.749,110.614,6.26044,0,0.000885,0,0
0:0:41.443,117.829,6.66723,0,0.000885,0,0
0:0:43.155,125.275,7.08781,0,0.000885,0,0
0:0:44.852,133.78,7.57044,0,0.000885,0,0
0:0:46.547,139.999,7.92208,0,0.000885,0,0
0:0:48.260,148.677,8.4116,0,0.000885,0,0
0:0:49.953,155.541,8.80461,0,0.000885,0,0
0:0:51.648,163.05,9.22519,0,0.000885,0,0
0:0:53.361,169.851,9.61129,0,0.000885,0,0
0:0:55.054,178.062,10.0732,0,0.000885,0,0
0:0:56.758,186.096,10.5283,0,0.000885,0,0
0:0:58.459,192.902,10.9144,0,0.000885,0,0
0:1:0.137,200.762,11.3626,0,0.000885,0,0
0:1:1.839,208.092,11.7762,0,0.000885,0,0
0:1:3.531,216.068,12.2244,0,0.000885,0,0
0:1:5.239,223.341,12.6381,0,0.000885,0,0
0:1:6.940,230.614,13.0518,0,0.000885,0,0
0:1:8.634,238.238,13.4793,0,0.000885,0,0
0:1:10.331,245.569,13.8998,0,0.000885,0,0
0:1:12.039,252.726,14.2997,0,0.000885,0,0
0:1:13.724,261.053,14.7755,0,0.000885,0,0
0:1:15.433,267.974,15.1616,0,0.000885,0,0
0:1:17.141,275.656,15.5959,0,0.000885,0,0
0:1:18.829,283.281,16.0303,0,0.000885,0,0
0:1:20.537,290.673,16.4509,0,0.000885,0,0
0:1:22.244,298.178,16.8715,0,0.000885,0,0
0:1:23.932,305.277,17.2783,0,0.000885,0,0
0:1:25.631,313.31,17.7264,0,0.000885,0,0
0:1:27.334,320.641,18.147,0,0.000885,0,0
0:1:29.023,328.386,18.5814,0,0.000885,0,0
0:1:30.734,336.068,19.0157,0,0.000885,0,0
0:1:32.435,342.811,19.4018,0,0.000885,0,0
0:1:34.139,350.613,19.8431,0,0.000885,0,0
0:1:35.836,357.766,20.243,0,0.000885,0,0
0:1:37.540,366.04,20.7119,0,0.000885,0,0
0:1:39.234,373.192,21.1186,0,0.000885,0,0
0:1:40.929,380.937,21.5599,0,0.000885,0,0
0:1:42.635,388.499,21.9874,0,0.000885,0,0
0:1:44.338,395.714,22.3942,0,0.000885,0,0
0:1:46.033,403.044,22.8079,0,0.000885,0,0
0:1:47.737,410.553,23.2353,0,0.000885,0,0
0:1:49.428,417.884,23.649,0,0.000885,0,0
0:1:51.135,425.922,24.1041,0,0.000885,0,0
0:1:52.839,433.719,24.5453,0,0.000885,0,0
0:1:54.520,440.992,24.9521,0,0.000885,0,0
0:1:56.227,448.323,25.3727,0,0.000885,0,0
0:1:57.943,456.125,25.814,0,0.000885,0,0
0:1:59.637,463.104,26.207,0,0.000885,0,0
0:2:1.337,470.493,26.6276,0,0.000885,0,0
0:2:3.035,478.646,27.0826,0,0.000885,0,0
0:2:4.738,485.919,27.4963,0,0.000885,0,0
0:2:6.438,493.601,27.9307,0,0.000885,0,0
0:2:8.138,500.581,28.3306,0,0.000885,0,0
0:2:9.839,509.086,28.8063,0,0.000885,0,0
0:2:11.540,515.42,29.1648,0,0.000885,0,0
0:2:13.241,523.396,29.6199,0,0.000885,0,0
0:2:14.928,530.495,30.0198,0,0.000885,0,0
0:2:16.640,538.528,30.4748,0,0.000885,0,0
0:2:18.331,546.331,30.9161,0,0.000885,0,0
0:2:20.042,553.425,31.316,0,0.000885,0,0
0:2:21.743,561.05,31.7504,0,0.000885,0,0
0:2:23.436,568.149,32.1503,0,0.000885,0,0
0:2:25.132,576.005,32.5984,0,0.000885,0,0
0:2:26.845,583.162,32.9983,0,0.000885,0,0
0:2:28.543,591.022,33.4465,0,0.000885,0,0
0:2:30.238,598.477,33.867,0,0.000885,0,0
0:2:31.947,605.754,34.2807,0,0.000885,0,0
0:2:33.652,613.623,34.722,0,0.000885,0,0
0:2:35.344,620.901,35.1357,0,0.000885,0,0
0:2:37.052,628.534,35.5701,0,0.000885,0,0
0:2:38.747,636.634,36.0251,0,0.000885,0,0
0:2:40.432,643.502,36.4112,0,0.000885,0,0
0:2:42.145,651.309,36.8594,0,0.000885,0,0
0:2:43.842,658.822,37.28,0,0.000885,0,0
0:2:45.539,666.157,37.6936,0,0.000885,0,0
0:2:47.253,673.67,38.1211,0,0.000885,0,0
0:2:48.950,681.476,38.5624,0,0.000885,0,0
0:2:50.635,688.407,38.9554,0,0.000885,0,0
0:2:52.356,696.151,39.3966,0,0.000885,0,0
0:2:54.046,703.491,39.8103,0,0.000885,0,0
0:2:55.744,711.475,40.2585,0,0.000885,0,0
0:2:57.451,718.93,40.686,0,0.000885,0,0
0:2:59.141,726.15,41.0928,0,0.000885,0,0
0:3:0.828,733.779,41.5202,0,0.000885,0,0
0:3:2.558,741.056,41.9339,0,0.000885,0,0
0:3:4.251,748.16,42.3338,0,0.000885,0,0
0:3:5.938,756.26,42.7958,0,0.000885,0,0
0:3:7.656,763.479,43.2025,0,0.000885,0,0
0:3:9.348,771.522,43.6576,0,0.000885,0,0
0:3:11.045,778.683,44.0644,0,0.000885,0,0
0:3:12.754,786.548,44.5126,0,0.000885,0,0
0:3:14.447,793.772,44.9193,0,0.000885,0,0
0:3:16.145,801.516,45.3537,0,0.000885,0,0
0:3:17.854,808.62,45.7605,0,0.000885,0,0
0:3:19.544,816.075,46.1811,0,0.000885,0,0
0:3:21.233,824.118,46.6361,0,0.000885,0,0
0:3:22.942,831.337,47.0429,0,0.000885,0,0
0:3:24.642,838.734,47.4635,0,0.000885,0,0
0:3:26.331,846.421,47.8979,0,0.000885,0,0
0:3:28.048,853.703,48.3116,0,0.000885,0,0
0:3:29.736,861.038,48.7252,0,0.000885,0,0
0:3:31.446,868.671,49.1596,0,0.000885,0,0
0:3:33.153,877.18,49.6354,0,0.000885,0,0
0:3:34.840,883.813,50.0146,0,0.000885,0,0
0:3:36.544,891.682,50.4558,0,0.000885,0,0
0:3:38.252,898.901,50.8695,0,0.000885,0,0
0:3:39.938,906.356,51.2901,0,0.000885,0,0
0:3:41.638,913.927,51.7176,0,0.000885,0,0
0:3:43.348,921.556,52.1519,0,0.000885,0,0
0:3:45.046,929.425,52.5932,0,0.000885,0,0
0:3:46.755,936.293,52.9862,0,0.000885,0,0
0:3:48.456,944.744,53.4619,0,0.000885,0,0
0:3:50.140,951.261,53.8274,0,0.000885,0,0
0:3:51.851,959.068,54.2686,0,0.000885,0,0
0:3:53.554,966.817,54.7099,0,0.000885,0,0
0:3:55.237,974.387,55.1374,0,0.000885,0,0
0:3:56.936,981.723,55.5511,0,0.000885,0,0
0:3:58.639,989.413,55.9923,0,0.000885,0,0
0:4:0.332,996.517,56.3922,0,0.000885,0,0
0:4:2.038,1003.91,56.8128,0,0.000885,0,0
0:4:3.756,1011.89,57.261,0,0.000885,0,0
0:4:5.439,1019.11,57.6677,0,0.000885,0,0
0:4:7.149,1026.98,58.1159,0,0.000885,0,0
0:4:8.853,1034.44,58.5365,0,0.000885,0,0
0:4:10.548,1041.83,58.9571,0,0.000885,0,0
0:4:12.256,1049.41,59.3845,0,0.000885,0,0
0:4:13.951,1056.45,59.7844,0,0.000885,0,0
0:4:15.635,1064.25,60.2257,0,0.000885,0,0
0:4:17.363,1071.47,60.6325,0,0.000885,0,0
0:4:19.057,1079.28,61.0738,0,0.000885,0,0
0:4:20.742,1085.92,61.453,0,0.000885,0,0
0:4:22.453,1094.31,61.9218,0,0.000885,0,0
0:4:24.146,1101.88,62.3562,0,0.000885,0,0
0:4:25.840,1108.92,62.7492,0,0.000885,0,0
0:4:27.557,1117.02,63.2111,0,0.000885,0,0
0:4:29.255,1124.19,63.6179,0,0.000885,0,0
0:4:30.939,1131.7,64.0385,0,0.000885,0,0
0:4:32.658,1139.51,64.4798,0,0.000885,0,0
0:4:34.355,1147.02,64.9072,0,0.000885,0,0
0:4:36.039,1154.71,65.3416,0,0.000885,0,0
0:4:37.755,1162.11,65.7622,0,0.000885,0,0
0:4:39.455,1169.5,66.1828,0,0.000885,0,0
0:4:41.138,1176.78,66.5896,0,0.000885,0,0
0:4:42.853,1184.47,67.0239,0,0.000885,0,0
0:4:44.553,1191.22,67.41,0,0.000885,0,0
0:4:46.241,1199.32,67.8651,0,0.000885,0,0
0:4:47.959,1207.07,68.3064,0,0.000885,0,0
0:4:49.647,1214.17,68.7063,0,0.000885,0,0
0:4:51.346,1221.81,69.1406,0,0.000885,0,0
0:4:53.056,1229.32,69.5681,0,0.000885,0,0
0:4:54.755,1237.06,70.0025,0,0.000885,0,0
0:4:56.454,1244.87,70.4437,0,0.000885,0,0
0:4:58.164,1252.21,70.8574,0,0.000885,0,0
0:4:59.852,1260.02,71.3056,0,0.000885,0,0
0:5:1.552,1267.18,71.7055,0,0.000885,0,0
0:5:3.264,1274.4,72.1192,0,0.000885,0,0
0:5:4.948,1282.03,72.5466,0,0.000885,0,0
0:5:6.647,1289.6,72.9741,0,0.000885,0,0
0:5:8.349,1296.76,73.3809,0,0.000885,0,0
0:5:10.057,1305.1,73.8566,0,0.000885,0,0
0:5:11.768,1312.43,74.2703,0,0.000885,0,0
0:5:13.471,1319.77,74.684,0,0.000885,0,0
0:5:15.157,1326.99,75.0908,0,0.000885,0,0
0:5:16.865,1333.98,75.4907,0,0.000885,0,0
0:5:18.569,1342.43,75.9664,0,0.000885,0,0
0:5:20.255,1348.83,76.325,0,0.000885,0,0
0:5:21.960,1357.05,76.7938,0,0.000885,0,0
0:5:23.660,1364.79,77.2282,0,0.000885,0,0
0:5:25.355,1372.49,77.6694,0,0.000885,0,0
0:5:27.069,1379.88,78.0831,0,0.000885,0,0
0:5:28.767,1387.04,78.4899,0,0.000885,0,0
0:5:30.456,1395.14,78.9519,0,0.000885,0,0
0:5:32.160,1401.95,79.3311,0,0.000885,0,0
0:5:33.859,1409.82,79.7792,0,0.000885,0,0
0:5:35.547,1416.75,80.1722,0,0.000885,0,0
0:5:37.251,1424.73,80.6204,0,0.000885,0,0
0:5:38.950,1433.06,81.0961,0,0.000885,0,0
0:5:40.658,1439.76,81.4753,0,0.000885,0,0
0:5:42.370,1446.74,81.8683,0,0.000885,0,0
0:5:44.070,1454.6,82.3165,0,0.000885,0,0
0:5:45.765,1462.59,82.7647,0,0.000885,0,0
0:5:47.479,1469.99,83.1852,0,0.000885,0,0
0:5:49.170,1477.67,83.6196,0,0.000885,0,0
0:5:50.854,1485.09,84.0402,0,0.000885,0,0
0:5:52.569,1492.33,84.447,0,0.000885,0,0
0:5:54.259,1500.1,84.8883,0,0.000885,0,0
0:5:55.951,1507.47,85.3019,0,0.000885,0,0
0:5:57.667,1514.53,85.7018,0,0.000885,0,0
0:5:59.358,1522.95,86.1845,0,0.000885,0,0
0:6:1.042,1529.73,86.5637,0,0.000885,0,0
0:6:2.759,1537.32,86.9912,0,0.000885,0,0
0:6:4.455,1544.97,87.4255,0,0.000885,0,0
0:6:6.150,1552.51,87.853,0,0.000885,0,0
0:6:7.865,1559.87,88.2736,0,0.000885,0,0
0:6:9.564,1567.47,88.7011,0,0.000885,0,0
0:6:11.255,1575.06,89.1285,0,0.000885,0,0
0:6:12.968,1582.19,89.5353,0,0.000885,0,0
0:6:14.656,1590.31,89.9904,0,0.000885,0,0
0:6:16.366,1597.5,90.3972,0,0.000885,0,0
0:6:18.074,1605.51,90.8522,0,0.000885,0,0
0:6:19.764,1612.04,91.2245,0,0.000885,0,0
0:6:21.451,1620.29,91.6865,0,0.000885,0,0
0:6:23.170,1627.76,92.114,0,0.000885,0,0
0:6:24.867,1634.89,92.5139,0,0.000885,0,0
0:6:26.554,1642.78,92.962,0,0.000885,0,0
0:6:28.266,1649.67,93.355,0,0.000885,0,0
0:6:29.950,1657.91,93.817,0,0.000885,0,0
0:6:31.650,1664.98,94.2169,0,0.000885,0,0
0:6:33.364,1672.4,94.6374,0,0.000885,0,0
0:6:35.045,1680.46,95.0925,0,0.000885,0,0
0:6:36.747,1687.24,95.4786,0,0.000885,0,0
0:6:38.458,1694.83,95.9061,0,0.000885,0,0
0:6:40.154,1702.96,96.368,0,0.000885,0,0
0:6:41.865,1710.26,96.7817,0,0.000885,0,0
0:6:43.567,1717.97,97.2161,0,0.000885,0,0
0:6:45.259,1724.92,97.6091,0,0.000885,0,0
0:6:46.960,1732.64,98.0503,0,0.000885,0,0
0:6:48.671,1732.75,98.0503,0,0.000885,0,0
0:6:50.351,1717.32,97.1816,0,0.000885,0,0
0:6:52.047,1698.13,96.0922,0,0.000885,0,0
0:6:53.761,1699.25,96.1612,0,0.000885,0,0
0:6:55.089,1662.39,94.0721,0,0.000885,0,0