File: DataFile2021-06-08_053338.csv
Test ID:,Date Tested:,Time:,Test Type:,Diameter Avg. (mm):,Cyl. Corr. Factor:,Height (mm):,Age (days):,Weight (kN):,Break Type:,Ramp Rate (MPa/s):,Load at Break (kN):,Stress at Break (MPa):
12,6/8/2021,05:33,Cylinder,150,1,300,0,3.6,6,0.24,908.82,51.43
Sample Time,Load (kN),Stress (MPa),Long. Strain,Trans. Strain,Chan1 Deflection (mm),Chan2 Deflection (mm)
0:0:13.121,8.32707,0.468843,0,0.000885,0,0
0:0:14.015,16.8321,0.951477,0,0.000885,0,0
0:0:14.910,16.4807,0.930792,0,0.000885,0,0
0:0:15.801,16.0714,0.910108,0,0.000885,0,0
0:0:16.690,20.1193,1.13763,0,0.000885,0,0
0:0:17.606,25.2792,1.42721,0,0.000885,0,0
0:0:18.507,29.7364,1.68232,0,0.000885,0,0
0:0:19.420,33.1393,1.87537,0,0.000885,0,0
0:0:20.326,36.9514,2.08911,0,0.000885,0,0
0:0:21.220,41.582,2.35111,0,0.000885,0,0
0:0:22.117,44.8692,2.53727,0,0.000885,0,0
0:0:23.014,49.0327,2.77169,0,0.000885,0,0
0:0:23.920,53.0806,3.00611,0,0.000885,0,0
0:0:24.829,57.8892,3.27501,0,0.000885,0,0
0:0:25.725,60.2334,3.40601,0,0.000885,0,0
0:0:26.625,64.8684,3.66801,0,0.000885,0,0
0:0:27.519,68.9741,3.90243,0,0.000885,0,0
0:0:28.412,72.3147,4.09549,0,0.000885,0,0
0:0:29.326,77.6526,4.39196,0,0.000885,0,0
0:0:30.233,81.4647,4.61259,0,0.000885,0,0
0:0:31.129,84.6897,4.79186,0,0.000885,0,0
0:0:32.022,89.0312,5.04007,0,0.000885,0,0
0:0:32.916,92.7855,5.25381,0,0.000885,0,0
0:0:33.818,96.7132,5.47444,0,0.000885,0,0
0:0:34.731,100.174,5.66749,0,0.000885,0,0
0:0:35.632,105.338,5.96397,0,0.000885,0,0
0:0:36.526,108.857,6.15702,0,0.000885,0,0
0:0:37.424,112.842,6.38455,0,0.000885,0,0
0:0:38.320,116.361,6.58449,0,0.000885,0,0
0:0:39.233,120.818,6.8396,0,0.000885,0,0
0:0:40.137,124.808,7.06023,0,0.000885,0,0
0:0:41.033,127.86,7.2326,0,0.000885,0,0
0:0:41.931,132.784,7.51529,0,0.000885,0,0
0:0:42.824,136.774,7.74281,0,0.000885,0,0
0:0:43.726,140.292,7.93587,0,0.000885,0,0
0:0:44.636,144.807,8.19787,0,0.000885,0,0
0:0:45.538,148.032,8.37713,0,0.000885,0,0
0:0:46.430,152.258,8.61845,0,0.000885,0,0
0:0:47.324,156.012,8.82529,0,0.000885,0,0
0:0:48.222,160.643,9.08729,0,0.000885,0,0
0:0:49.131,164.691,9.32171,0,0.000885,0,0
0:0:50.039,168.325,9.52855,0,0.000885,0,0
0:0:50.933,172.079,9.7354,0,0.000885,0,0
0:0:51.830,175.776,9.94913,0,0.000885,0,0
0:0:52.726,180.642,10.2249,0,0.000885,0,0
0:0:53.630,184.281,10.4249,0,0.000885,0,0
0:0:54.540,188.387,10.6593,0,0.000885,0,0
0:0:55.439,192.43,10.8868,0,0.000885,0,0
0:0:56.330,195.659,11.073,0,0.000885,0,0
0:0:57.216,200.352,11.335,0,0.000885,0,0
0:0:58.104,204.28,11.5625,0,0.000885,0,0
0:0:59.009,208.15,11.7762,0,0.000885,0,0
0:0:59.912,211.553,11.9693,0,0.000885,0,0
0:1:0.810,215.894,12.2175,0,0.000885,0,0
0:1:1.698,219.764,12.4381,0,0.000885,0,0
0:1:2.590,223.986,12.6726,0,0.000885,0,0
0:1:3.498,227.682,12.8863,0,0.000885,0,0
0:1:4.404,231.904,13.1207,0,0.000885,0,0
0:1:5.311,235.364,13.3207,0,0.000885,0,0
0:1:6.203,239.648,13.562,0,0.000885,0,0
0:1:7.112,244.221,13.8171,0,0.000885,0,0
0:1:8.009,248.033,14.0377,0,0.000885,0,0
0:1:8.903,250.791,14.1894,0,0.000885,0,0
0:1:9.808,255.893,14.479,0,0.000885,0,0
0:1:10.712,259.878,14.7065,0,0.000885,0,0
0:1:11.596,263.517,14.9134,0,0.000885,0,0
0:1:12.497,266.858,15.0995,0,0.000885,0,0
0:1:13.399,271.319,15.3546,0,0.000885,0,0
0:1:14.307,274.953,15.5615,0,0.000885,0,0
0:1:15.210,279.762,15.8304,0,0.000885,0,0
0:1:16.108,283.752,16.0579,0,0.000885,0,0
0:1:17.011,287.386,16.2647,0,0.000885,0,0
0:1:17.909,291.256,16.4785,0,0.000885,0,0
0:1:18.815,295.54,16.7267,0,0.000885,0,0
0:1:19.719,299.116,16.9266,0,0.000885,0,0
0:1:20.614,303.106,17.1542,0,0.000885,0,0
0:1:21.510,307.448,17.3955,0,0.000885,0,0
0:1:22.407,310.731,17.5816,0,0.000885,0,0
0:1:23.306,315.659,17.8643,0,0.000885,0,0
0:1:24.218,319.823,18.0987,0,0.000885,0,0
0:1:25.120,323.105,18.2849,0,0.000885,0,0
0:1:26.008,327.153,18.5124,0,0.000885,0,0
0:1:26.906,331.201,18.74,0,0.000885,0,0
0:1:27.807,334.484,18.9261,0,0.000885,0,0
0:1:28.717,339.702,19.2226,0,0.000885,0,0
0:1:29.619,343.283,19.4225,0,0.000885,0,0
0:1:30.507,346.45,19.6018,0,0.000885,0,0
0:1:31.408,351.2,19.8707,0,0.000885,0,0
0:1:32.306,354.368,20.05,0,0.000885,0,0
0:1:33.191,358.705,20.2982,0,0.000885,0,0
0:1:34.093,362.873,20.5326,0,0.000885,0,0
0:1:34.993,366.858,20.7601,0,0.000885,0,0
0:1:35.893,370.964,20.9945,0,0.000885,0,0
0:1:36.791,375.479,21.2496,0,0.000885,0,0
0:1:37.681,378.237,21.4013,0,0.000885,0,0
0:1:38.573,382.4,21.6426,0,0.000885,0,0
0:1:39.477,386.155,21.8495,0,0.000885,0,0
0:1:40.371,390.67,22.1046,0,0.000885,0,0
0:1:41.262,394.775,22.339,0,0.000885,0,0
0:1:42.155,398.294,22.539,0,0.000885,0,0
0:1:43.042,402.52,22.7803,0,0.000885,0,0
0:1:43.939,405.629,22.9526,0,0.000885,0,0
0:1:44.843,410.669,23.2422,0,0.000885,0,0
0:1:45.738,414.952,23.4835,0,0.000885,0,0
0:1:46.627,417.942,23.649,0,0.000885,0,0
0:1:47.513,421.58,23.8559,0,0.000885,0,0
0:1:48.409,425.802,24.0972,0,0.000885,0,0
0:1:49.314,429.614,24.3109,0,0.000885,0,0
0:1:50.209,434.364,24.5798,0,0.000885,0,0
0:1:51.103,437.945,24.7798,0,0.000885,0,0
0:1:52.012,441.522,24.9866,0,0.000885,0,0
0:1:52.912,446.566,25.2693,0,0.000885,0,0
0:1:53.815,449.791,25.4554,0,0.000885,0,0
0:1:54.716,454.248,25.7037,0,0.000885,0,0
0:1:55.614,458.002,25.9174,0,0.000885,0,0
0:1:56.512,462.166,26.1518,0,0.000885,0,0
0:1:57.403,465.804,26.3587,0,0.000885,0,0
0:1:58.315,470.435,26.6207,0,0.000885,0,0
0:1:59.221,473.954,26.8206,0,0.000885,0,0
0:2:0.117,478.117,27.055,0,0.000885,0,0
0:2:1.016,481.929,27.2688,0,0.000885,0,0
0:2:1.909,485.804,27.4894,0,0.000885,0,0
0:2:2.815,490.261,27.7445,0,0.000885,0,0
0:2:3.713,493.308,27.9169,0,0.000885,0,0
0:2:4.615,497.943,28.1789,0,0.000885,0,0
0:2:5.509,502.222,28.4202,0,0.000885,0,0
0:2:6.417,506.096,28.6408,0,0.000885,0,0
0:2:7.313,509.028,28.8063,0,0.000885,0,0
0:2:8.213,513.956,29.0821,0,0.000885,0,0
0:2:9.116,517.884,29.3096,0,0.000885,0,0
0:2:10.017,521.638,29.5165,0,0.000885,0,0
0:2:10.913,525.744,29.7509,0,0.000885,0,0
0:2:11.811,529.436,29.9577,0,0.000885,0,0
0:2:12.712,533.484,30.1921,0,0.000885,0,0
0:2:13.620,538.061,30.4472,0,0.000885,0,0
0:2:14.522,540.993,30.6127,0,0.000885,0,0
0:2:15.411,545.098,30.8471,0,0.000885,0,0
0:2:16.313,549.613,31.1023,0,0.000885,0,0
0:2:17.210,553.016,31.2953,0,0.000885,0,0
0:2:18.117,557.825,31.5642,0,0.000885,0,0
0:2:19.022,561.228,31.7573,0,0.000885,0,0
0:2:19.923,565.04,31.9779,0,0.000885,0,0
0:2:20.813,568.91,32.1916,0,0.000885,0,0
0:2:21.718,573.483,32.4536,0,0.000885,0,0
0:2:22.616,577.473,32.6811,0,0.000885,0,0
0:2:23.517,580.991,32.8742,0,0.000885,0,0
0:2:24.421,584.63,33.081,0,0.000885,0,0
0:2:25.316,588.615,33.3086,0,0.000885,0,0
0:2:26.216,593.308,33.5775,0,0.000885,0,0
0:2:27.122,597.067,33.7843,0,0.000885,0,0
0:2:28.014,600.706,33.9912,0,0.000885,0,0
0:2:28.921,605.399,34.26,0,0.000885,0,0
0:2:29.831,609.335,34.4807,0,0.000885,0,0
0:2:30.728,613.619,34.722,0,0.000885,0,0
0:2:31.620,616.848,34.9082,0,0.000885,0,0
0:2:32.509,621.19,35.1495,0,0.000885,0,0
0:2:33.420,624.891,35.3632,0,0.000885,0,0
0:2:34.330,629.116,35.5976,0,0.000885,0,0
0:2:35.228,632.813,35.8114,0,0.000885,0,0
0:2:36.119,636.394,36.0113,0,0.000885,0,0
0:2:37.012,641.265,36.2871,0,0.000885,0,0
0:2:37.918,645.081,36.5008,0,0.000885,0,0
0:2:38.820,648.778,36.7146,0,0.000885,0,0
0:2:39.727,652.243,36.9076,0,0.000885,0,0
0:2:40.621,657.114,37.1834,0,0.000885,0,0
0:2:41.515,660.752,37.3903,0,0.000885,0,0
0:2:42.408,664.333,37.5902,0,0.000885,0,0
0:2:43.320,669.03,37.8591,0,0.000885,0,0
0:2:44.229,672.024,38.0315,0,0.000885,0,0
0:2:45.132,676.543,38.2866,0,0.000885,0,0
0:2:46.028,680.244,38.4934,0,0.000885,0,0
0:2:46.919,685.231,38.7761,0,0.000885,0,0
0:2:47.821,688.869,38.983,0,0.000885,0,0
0:2:48.720,692.219,39.1691,0,0.000885,0,0
0:2:49.630,696.738,39.4242,0,0.000885,0,0
0:2:50.529,701.08,39.6724,0,0.000885,0,0
0:2:51.420,704.131,39.8448,0,0.000885,0,0
0:2:52.310,708.886,40.1137,0,0.000885,0,0
0:2:53.216,712.703,40.3274,0,0.000885,0,0
0:2:54.124,715.932,40.5136,0,0.000885,0,0
0:2:55.030,720.394,40.7687,0,0.000885,0,0
0:2:55.920,723.325,40.9342,0,0.000885,0,0
0:2:56.815,728.258,41.21,0,0.000885,0,0
0:2:57.720,732.191,41.4306,0,0.000885,0,0
0:2:58.625,736.065,41.6512,0,0.000885,0,0
0:2:59.530,739.761,41.865,0,0.000885,0,0
0:3:0.422,744.459,42.127,0,0.000885,0,0
0:3:1.319,747.924,42.3269,0,0.000885,0,0
0:3:2.214,751.972,42.5544,0,0.000885,0,0
0:3:3.117,756.376,42.8027,0,0.000885,0,0
0:3:4.027,760.072,43.0095,0,0.000885,0,0
0:3:4.927,763.301,43.1957,0,0.000885,0,0
0:3:5.822,768.408,43.4852,0,0.000885,0,0
0:3:6.725,772.282,43.699,0,0.000885,0,0
0:3:7.616,776.272,43.9265,0,0.000885,0,0
0:3:8.525,780.205,44.154,0,0.000885,0,0
0:3:9.434,783.906,44.3609,0,0.000885,0,0
0:3:10.333,788.367,44.6091,0,0.000885,0,0
0:3:11.222,792.357,44.8366,0,0.000885,0,0
0:3:12.126,795.76,45.0297,0,0.000885,0,0
0:3:13.022,799.87,45.2641,0,0.000885,0,0
0:3:13.925,804.332,45.5192,0,0.000885,0,0
0:3:14.831,808.091,45.726,0,0.000885,0,0
0:3:15.722,811.903,45.9467,0,0.000885,0,0
0:3:16.619,815.661,46.1604,0,0.000885,0,0
0:3:17.523,819.652,46.381,0,0.000885,0,0
0:3:18.424,824.171,46.6361,0,0.000885,0,0
0:3:19.335,827.752,46.843,0,0.000885,0,0
0:3:20.240,831.746,47.0705,0,0.000885,0,0
0:3:21.133,835.621,47.2842,0,0.000885,0,0
0:3:22.024,838.846,47.4704,0,0.000885,0,0
0:3:22.918,843.837,47.7531,0,0.000885,0,0
0:3:23.823,848.005,47.9875,0,0.000885,0,0
0:3:24.731,850.998,48.1599,0,0.000885,0,0
0:3:25.621,855.575,48.415,0,0.000885,0,0
0:3:26.524,859.57,48.6425,0,0.000885,0,0
0:3:27.420,863.618,48.87,0,0.000885,0,0
0:3:28.322,867.55,49.0907,0,0.000885,0,0
0:3:29.232,871.424,49.3113,0,0.000885,0,0
0:3:30.133,875.063,49.5181,0,0.000885,0,0
0:3:31.031,879.938,49.7939,0,0.000885,0,0
0:3:31.922,883.226,49.9801,0,0.000885,0,0
0:3:32.823,887.331,50.2145,0,0.000885,0,0
0:3:33.721,890.739,50.4076,0,0.000885,0,0
0:3:34.628,895.2,50.6558,0,0.000885,0,0
0:3:35.528,898.719,50.8557,0,0.000885,0,0
0:3:36.418,902.593,51.0764,0,0.000885,0,0
0:3:37.310,905.12,51.2212,0,0.000885,0,0
0:3:38.216,908.349,51.4004,0,0.000885,0,0
0:3:39.126,907.878,51.3728,0,0.000885,0,0
0:3:40.021,894.084,50.5937,0,0.000885,0,0
0:3:40.921,866.438,49.0286,0,0.000885,0,0
0:3:41.368,760.366,43.0302,0,0.000885,0,0