File: DataFile2021-06-30_081440.csv
Test ID:,Date Tested:,Time:,Test Type:,Diameter Avg. (mm):,Cyl. Corr. Factor:,Height (mm):,Age (days):,Weight (kN):,Break Type:,Ramp Rate (MPa/s):,Load at Break (kN):,Stress at Break (MPa):
12,6/30/2021,08:14,Cylinder,100,1,200,0,3.6,3,0.25,778.98,99.18
Sample Time,Load (kN),Stress (MPa),Long. Strain,Trans. Strain,Chan1 Deflection (mm),Chan2 Deflection (mm)
0:0:32.803,5.45352,0.69637,0,0.000885,0,0
0:0:34.519,8.67848,1.10316,0,0.000885,0,0
0:0:36.214,11.8456,1.50995,0,0.000885,0,0
0:0:37.923,14.8971,1.89606,0,0.000885,0,0
0:0:39.639,18.7092,2.38559,0,0.000885,0,0
0:0:41.327,22.3479,2.84753,0,0.000885,0,0
0:0:43.020,25.3949,3.23364,0,0.000885,0,0
0:0:44.738,28.4464,3.61975,0,0.000885,0,0
0:0:46.428,32.0806,4.0817,0,0.000885,0,0
0:0:48.121,35.0164,4.46091,0,0.000885,0,0
0:0:49.837,38.5349,4.90907,0,0.000885,0,0
0:0:51.526,42.1113,5.36412,0,0.000885,0,0
0:0:53.219,45.2784,5.76402,0,0.000885,0,0
0:0:54.934,48.9126,6.22597,0,0.000885,0,0
0:0:56.623,51.9063,6.61207,0,0.000885,0,0
0:0:58.323,55.1891,7.02576,0,0.000885,0,0
0:1:0.031,58.8277,7.48771,0,0.000885,0,0
0:1:1.719,61.8748,7.88071,0,0.000885,0,0
0:1:3.427,64.9262,8.26681,0,0.000885,0,0
0:1:5.136,69.0898,8.79771,0,0.000885,0,0
0:1:6.825,72.0834,9.17692,0,0.000885,0,0
0:1:8.530,75.0726,9.55613,0,0.000885,0,0
0:1:10.238,78.4755,9.9905,0,0.000885,0,0
0:1:11.932,82.1097,10.4525,0,0.000885,0,0
0:1:13.625,85.3347,10.8661,0,0.000885,0,0
0:1:15.337,88.9155,11.3212,0,0.000885,0,0
0:1:17.030,91.3754,11.6315,0,0.000885,0,0
0:1:18.733,95.4811,12.1555,0,0.000885,0,0
0:1:20.430,98.8261,12.5829,0,0.000885,0,0
0:1:22.124,102.051,12.9966,0,0.000885,0,0
0:1:23.837,105.276,13.4034,0,0.000885,0,0
0:1:25.536,108.973,13.8723,0,0.000885,0,0
0:1:27.230,111.962,14.2584,0,0.000885,0,0
0:1:28.933,115.191,14.6651,0,0.000885,0,0
0:1:30.636,118.825,15.1271,0,0.000885,0,0
0:1:32.329,121.757,15.4994,0,0.000885,0,0
0:1:34.033,125.338,15.9614,0,0.000885,0,0
0:1:35.733,129.03,16.4302,0,0.000885,0,0
0:1:37.426,131.903,16.7956,0,0.000885,0,0
0:1:39.138,135.426,17.2438,0,0.000885,0,0
0:1:40.837,139.118,17.7126,0,0.000885,0,0
0:1:42.530,141.934,18.0712,0,0.000885,0,0
0:1:44.239,145.51,18.5262,0,0.000885,0,0
0:1:45.935,148.913,18.9606,0,0.000885,0,0
0:1:47.626,152.374,19.4018,0,0.000885,0,0
0:1:49.340,155.19,19.7604,0,0.000885,0,0
0:1:51.035,158.472,20.1741,0,0.000885,0,0
0:1:52.725,161.991,20.6222,0,0.000885,0,0
0:1:54.448,165.394,21.0566,0,0.000885,0,0
0:1:56.140,168.854,21.4979,0,0.000885,0,0
0:1:57.832,172.257,21.9322,0,0.000885,0,0
0:1:59.540,175.425,22.339,0,0.000885,0,0
0:2:1.234,178.827,22.7665,0,0.000885,0,0
0:2:2.928,181.874,23.1595,0,0.000885,0,0
0:2:4.637,185.744,23.649,0,0.000885,0,0
0:2:6.329,188.854,24.0489,0,0.000885,0,0
0:2:8.032,192.141,24.4626,0,0.000885,0,0
0:2:9.735,195.891,24.9452,0,0.000885,0,0
0:2:11.420,198.355,25.2555,0,0.000885,0,0
0:2:13.131,201.994,25.7174,0,0.000885,0,0
0:2:14.834,205.748,26.1932,0,0.000885,0,0
0:2:16.528,209.204,26.6344,0,0.000885,0,0
0:2:18.224,211.789,26.9654,0,0.000885,0,0
0:2:19.929,215.717,27.4687,0,0.000885,0,0
0:2:21.625,219.413,27.9376,0,0.000885,0,0
0:2:23.321,222.58,28.3375,0,0.000885,0,0
0:2:25.027,225.16,28.6684,0,0.000885,0,0
0:2:26.731,228.679,29.1166,0,0.000885,0,0
0:2:28.429,232.606,29.6199,0,0.000885,0,0
0:2:30.133,235.249,29.9508,0,0.000885,0,0
0:2:31.829,239.061,30.4404,0,0.000885,0,0
0:2:33.529,242.401,30.8609,0,0.000885,0,0
0:2:35.227,245.804,31.2953,0,0.000885,0,0
0:2:36.926,248.384,31.6263,0,0.000885,0,0
0:2:38.626,252.49,32.1503,0,0.000885,0,0
0:2:40.322,255.306,32.5088,0,0.000885,0,0
0:2:42.023,259.176,32.9983,0,0.000885,0,0
0:2:43.722,262.049,33.3637,0,0.000885,0,0
0:2:45.431,265.568,33.8119,0,0.000885,0,0
0:2:47.131,268.677,34.2118,0,0.000885,0,0
0:2:48.834,271.786,34.6048,0,0.000885,0,0
0:2:50.532,276.07,35.1495,0,0.000885,0,0
0:2:52.229,279.001,35.5218,0,0.000885,0,0
0:2:53.930,281.991,35.901,0,0.000885,0,0
0:2:55.627,285.336,36.3285,0,0.000885,0,0
0:2:57.337,289.09,36.8111,0,0.000885,0,0
0:2:59.033,292.079,37.1903,0,0.000885,0,0
0:3:0.724,295.362,37.604,0,0.000885,0,0
0:3:2.433,298.649,38.0246,0,0.000885,0,0
0:3:4.140,302.519,38.521,0,0.000885,0,0
0:3:5.832,306.038,38.9692,0,0.000885,0,0
0:3:7.531,308.502,39.2794,0,0.000885,0,0
0:3:9.229,312.256,39.7552,0,0.000885,0,0
0:3:10.930,315.833,40.2102,0,0.000885,0,0
0:3:12.631,318.764,40.5894,0,0.000885,0,0
0:3:14.338,322.576,41.0721,0,0.000885,0,0
0:3:16.040,325.45,41.4375,0,0.000885,0,0
0:3:17.716,328.737,41.8581,0,0.000885,0,0
0:3:19.426,332.371,42.32,0,0.000885,0,0
0:3:21.130,335.832,42.7613,0,0.000885,0,0
0:3:22.832,339.177,43.1819,0,0.000885,0,0
0:3:24.526,342.753,43.6438,0,0.000885,0,0
0:3:26.225,345.453,43.9817,0,0.000885,0,0
0:3:27.928,348.678,44.3953,0,0.000885,0,0
0:3:29.639,352.433,44.8711,0,0.000885,0,0
0:3:31.335,355.773,45.2986,0,0.000885,0,0
0:3:33.025,359.35,45.7536,0,0.000885,0,0
0:3:34.737,362.343,46.1328,0,0.000885,0,0
0:3:36.433,365.684,46.5603,0,0.000885,0,0
0:3:38.129,369.207,47.0085,0,0.000885,0,0
0:3:39.836,372.196,47.3877,0,0.000885,0,0
0:3:41.529,375.657,47.8289,0,0.000885,0,0
0:3:43.226,378.94,48.2495,0,0.000885,0,0
0:3:44.933,382.52,48.7046,0,0.000885,0,0
0:3:46.627,385.51,49.0838,0,0.000885,0,0
0:3:48.324,388.855,49.5113,0,0.000885,0,0
0:3:50.029,392.137,49.9318,0,0.000885,0,0
0:3:51.738,395.42,50.3455,0,0.000885,0,0
0:3:53.431,399.41,50.8557,0,0.000885,0,0
0:3:55.128,402.462,51.2418,0,0.000885,0,0
0:3:56.828,405.745,51.6624,0,0.000885,0,0
0:3:58.526,408.796,52.0485,0,0.000885,0,0
0:4:0.237,412.608,52.5381,0,0.000885,0,0
0:4:1.936,415.891,52.9517,0,0.000885,0,0
0:4:3.640,419.232,53.3792,0,0.000885,0,0
0:4:5.336,422.577,53.8067,0,0.000885,0,0
0:4:7.036,425.922,54.2273,0,0.000885,0,0
0:4:8.736,429.262,54.6547,0,0.000885,0,0
0:4:10.436,431.962,54.9995,0,0.000885,0,0
0:4:12.132,435.774,55.4821,0,0.000885,0,0
0:4:13.838,438.999,55.8958,0,0.000885,0,0
0:4:15.537,442.224,56.3026,0,0.000885,0,0
0:4:17.232,445.569,56.7301,0,0.000885,0,0
0:4:18.939,448.674,57.13,0,0.000885,0,0
0:4:20.637,452.842,57.6609,0,0.000885,0,0
0:4:22.343,455.422,57.9849,0,0.000885,0,0
0:4:24.040,459.234,58.4744,0,0.000885,0,0
0:4:25.737,462.869,58.9364,0,0.000885,0,0
0:4:27.431,465.742,59.3018,0,0.000885,0,0
0:4:29.148,469.381,59.7638,0,0.000885,0,0
0:4:30.834,472.254,60.1292,0,0.000885,0,0
0:4:32.543,475.889,60.5911,0,0.000885,0,0
0:4:34.245,478.882,60.9703,0,0.000885,0,0
0:4:35.932,482.401,61.4185,0,0.000885,0,0
0:4:37.629,486.155,61.9011,0,0.000885,0,0
0:4:39.331,489.086,62.2734,0,0.000885,0,0
0:4:41.019,492.605,62.7216,0,0.000885,0,0
0:4:42.720,495.95,63.1491,0,0.000885,0,0
0:4:44.440,498.824,63.5145,0,0.000885,0,0
0:4:46.140,502.636,63.9971,0,0.000885,0,0
0:4:47.833,505.918,64.4177,0,0.000885,0,0
0:4:49.541,509.321,64.8521,0,0.000885,0,0
0:4:51.239,512.431,65.2451,0,0.000885,0,0
0:4:52.930,515.42,65.6243,0,0.000885,0,0
0:4:54.633,519.583,66.1552,0,0.000885,0,0
0:4:56.341,522.519,66.5275,0,0.000885,0,0
0:4:58.022,525.451,66.8998,0,0.000885,0,0
0:4:59.727,529.614,67.4307,0,0.000885,0,0
0:5:1.432,532.603,67.8168,0,0.000885,0,0
0:5:3.132,535.77,68.2167,0,0.000885,0,0
0:5:4.836,538.822,68.6028,0,0.000885,0,0
0:5:6.543,542.341,69.051,0,0.000885,0,0
0:5:8.236,545.623,69.4716,0,0.000885,0,0
0:5:9.947,549.378,69.9473,0,0.000885,0,0
0:5:11.645,553.252,70.4437,0,0.000885,0,0
0:5:13.351,555.596,70.7402,0,0.000885,0,0
0:5:15.047,558.821,71.1539,0,0.000885,0,0
0:5:16.725,562.282,71.5952,0,0.000885,0,0
0:5:18.438,566.21,72.0916,0,0.000885,0,0
0:5:20.148,569.025,72.4501,0,0.000885,0,0
0:5:21.850,572.838,72.9327,0,0.000885,0,0
0:5:23.540,575.711,73.3051,0,0.000885,0,0
0:5:25.250,579.056,73.7256,0,0.000885,0,0
0:5:26.941,582.81,74.2083,0,0.000885,0,0
0:5:28.633,585.448,74.5392,0,0.000885,0,0
0:5:30.328,589.323,75.0356,0,0.000885,0,0
0:5:32.037,592.432,75.4286,0,0.000885,0,0
0:5:33.747,595.897,75.8699,0,0.000885,0,0
0:5:35.451,599.42,76.3181,0,0.000885,0,0
0:5:37.137,602.823,76.7524,0,0.000885,0,0
0:5:38.838,605.465,77.0903,0,0.000885,0,0
0:5:40.535,609.224,77.566,0,0.000885,0,0
0:5:42.254,612.863,78.0349,0,0.000885,0,0
0:5:43.951,615.621,78.3865,0,0.000885,0,0
0:5:45.650,619.495,78.876,0,0.000885,0,0
0:5:47.337,622.84,79.3035,0,0.000885,0,0
0:5:49.049,626.305,79.7448,0,0.000885,0,0
0:5:50.747,629.766,80.186,0,0.000885,0,0
0:5:52.446,632.586,80.5446,0,0.000885,0,0
0:5:54.147,635.989,80.9789,0,0.000885,0,0
0:5:55.839,639.512,81.4271,0,0.000885,0,0
0:5:57.548,642.741,81.8339,0,0.000885,0,0
0:5:59.257,646.38,82.3027,0,0.000885,0,0
0:6:0.948,649.254,82.6681,0,0.000885,0,0
0:6:2.644,652.777,83.1163,0,0.000885,0,0
0:6:4.353,655.886,83.5093,0,0.000885,0,0
0:6:6.040,659.76,84.0057,0,0.000885,0,0
0:6:7.729,662.638,84.3711,0,0.000885,0,0
0:6:9.457,666.513,84.8607,0,0.000885,0,0
0:6:11.141,669.391,85.2261,0,0.000885,0,0
0:6:12.832,672.028,85.5639,0,0.000885,0,0
0:6:14.545,675.965,86.0673,0,0.000885,0,0
0:6:16.242,679.074,86.4603,0,0.000885,0,0
0:6:17.934,683.064,86.9705,0,0.000885,0,0
0:6:19.643,684.297,87.129,0,0.000885,0,0
0:6:21.336,689.052,87.7358,0,0.000885,0,0
0:6:23.045,692.868,88.2184,0,0.000885,0,0
0:6:24.762,696.565,88.6873,0,0.000885,0,0
0:6:26.455,700.088,89.1354,0,0.000885,0,0
0:6:28.147,702.143,89.3974,0,0.000885,0,0
0:6:29.863,706.195,89.9145,0,0.000885,0,0
0:6:31.550,710.301,90.4385,0,0.000885,0,0
0:6:33.250,712.943,90.7764,0,0.000885,0,0
0:6:34.964,716.76,91.259,0,0.000885,0,0
0:6:36.646,719.402,91.5969,0,0.000885,0,0
0:6:38.351,723.334,92.1002,0,0.000885,0,0
0:6:40.053,725.621,92.3897,0,0.000885,0,0
0:6:41.743,729.615,92.9,0,0.000885,0,0
0:6:43.436,733.432,93.3826,0,0.000885,0,0
0:6:45.152,735.838,93.6929,0,0.000885,0,0
0:6:46.843,739.357,94.141,0,0.000885,0,0
0:6:48.538,742.995,94.603,0,0.000885,0,0
0:6:50.252,745.989,94.9822,0,0.000885,0,0
0:6:51.941,749.161,95.389,0,0.000885,0,0
0:6:53.659,752.741,95.844,0,0.000885,0,0
0:6:55.363,756.144,96.2784,0,0.000885,0,0
0:6:57.055,759.667,96.7265,0,0.000885,0,0
0:6:58.749,762.252,97.0506,0,0.000885,0,0
0:7:0.456,766.651,97.616,0,0.000885,0,0
0:7:2.148,769.645,97.9952,0,0.000885,0,0
0:7:3.845,772.874,98.4089,0,0.000885,0,0
0:7:5.553,776.219,98.8295,0,0.000885,0,0
0:7:7.246,778.919,99.1742,0,0.000885,0,0
0:7:7.568,767.007,97.6573,0,0.000885,0,0