File: DataFile2021-07-17_051409.csv
Test ID:,Date Tested:,Time:,Test Type:,Diameter Avg. (mm):,Cyl. Corr. Factor:,Height (mm):,Age (days):,Weight (kN):,Break Type:,Ramp Rate (MPa/s):,Load at Break (kN):,Stress at Break (MPa):
12,7/17/2021,05:14,Cylinder,100,1,200,0,3.6,3,0.25,1335.68,170.07
Sample Time,Load (kN),Stress (MPa),Long. Strain,Trans. Strain,Chan1 Deflection (mm),Chan2 Deflection (mm)
0:0:7.493,5.10211,0.648107,0,0.000885,0,0
0:0:10.402,10.4978,1.33758,0,0.000885,0,0
0:0:13.311,16.0714,2.04774,0,0.000885,0,0
0:0:16.222,22.8149,2.90269,0,0.000885,0,0
0:0:19.129,28.562,3.63354,0,0.000885,0,0
0:0:22.016,33.722,4.29543,0,0.000885,0,0
0:0:24.930,39.1799,4.9918,0,0.000885,0,0
0:0:27.815,45.2206,5.75712,0,0.000885,0,0
0:0:30.723,50.4962,6.43281,0,0.000885,0,0
0:0:33.627,56.4212,7.18434,0,0.000885,0,0
0:0:36.529,62.2884,7.92897,0,0.000885,0,0
0:0:39.437,67.2705,8.56329,0,0.000885,0,0
0:0:42.327,73.2533,9.32861,0,0.000885,0,0
0:0:45.240,78.8269,10.0388,0,0.000885,0,0
0:0:48.130,84.5162,10.7627,0,0.000885,0,0
0:0:51.039,90.9661,11.5832,0,0.000885,0,0
0:0:53.946,96.0682,12.2313,0,0.000885,0,0
0:0:56.841,102.229,13.0173,0,0.000885,0,0
0:0:59.757,107.331,13.6654,0,0.000885,0,0
0:1:2.643,113.723,14.479,0,0.000885,0,0
0:1:5.555,119.297,15.1892,0,0.000885,0,0
0:1:8.453,124.866,15.8993,0,0.000885,0,0
0:1:11.352,130.497,16.6164,0,0.000885,0,0
0:1:14.261,136.245,17.3472,0,0.000885,0,0
0:1:17.155,141.992,18.0781,0,0.000885,0,0
0:1:20.065,148.152,18.8641,0,0.000885,0,0
0:1:22.954,153.37,19.526,0,0.000885,0,0
0:1:25.864,159.002,20.243,0,0.000885,0,0
0:1:28.768,164.864,20.9945,0,0.000885,0,0
0:1:31.661,170.265,21.6771,0,0.000885,0,0
0:1:34.575,176.421,22.4631,0,0.000885,0,0
0:1:37.458,182.11,23.1871,0,0.000885,0,0
0:1:40.371,187.097,23.8214,0,0.000885,0,0
0:1:43.265,192.724,24.5384,0,0.000885,0,0
0:1:46.144,198.764,25.3107,0,0.000885,0,0
0:1:49.030,205.041,26.1036,0,0.000885,0,0
0:1:51.917,209.498,26.6758,0,0.000885,0,0
0:1:54.806,215.601,27.448,0,0.000885,0,0
0:1:57.713,221.521,28.2065,0,0.000885,0,0
0:2:0.618,227.269,28.9373,0,0.000885,0,0
0:2:3.518,232.375,29.5854,0,0.000885,0,0
0:2:6.402,239.003,30.4335,0,0.000885,0,0
0:2:9.307,244.163,31.0885,0,0.000885,0,0
0:2:12.219,249.794,31.8055,0,0.000885,0,0
0:2:15.116,255.715,32.557,0,0.000885,0,0
0:2:18.013,261.168,33.2534,0,0.000885,0,0
0:2:20.906,267.151,34.0118,0,0.000885,0,0
0:2:23.786,272.138,34.6531,0,0.000885,0,0
0:2:26.661,278.299,35.4322,0,0.000885,0,0
0:2:29.546,284.219,36.1906,0,0.000885,0,0
0:2:32.418,289.499,36.8594,0,0.000885,0,0
0:2:35.308,295.011,37.5626,0,0.000885,0,0
0:2:38.179,301.229,38.3555,0,0.000885,0,0
0:2:41.061,306.158,38.983,0,0.000885,0,0
0:2:43.947,312.665,39.8103,0,0.000885,0,0
0:2:46.822,317.594,40.4378,0,0.000885,0,0
0:2:49.723,323.048,41.1341,0,0.000885,0,0
0:2:52.625,329.498,41.9546,0,0.000885,0,0
0:2:55.521,335.245,42.6854,0,0.000885,0,0
0:2:58.430,340.409,43.3404,0,0.000885,0,0
0:3:1.323,347.037,44.1885,0,0.000885,0,0
0:3:4.212,351.61,44.7677,0,0.000885,0,0
0:3:7.107,357.299,45.4916,0,0.000885,0,0
0:3:9.994,363.927,46.3397,0,0.000885,0,0
0:3:12.865,368.793,46.9533,0,0.000885,0,0
0:3:15.750,374.718,47.7117,0,0.000885,0,0
0:3:18.627,380.523,48.4495,0,0.000885,0,0
0:3:21.516,385.803,49.1251,0,0.000885,0,0
0:3:24.403,392.547,49.9801,0,0.000885,0,0
0:3:27.302,397.182,50.573,0,0.000885,0,0
0:3:30.220,403.632,51.3935,0,0.000885,0,0
0:3:33.130,408.854,52.0554,0,0.000885,0,0
0:3:36.026,414.774,52.8138,0,0.000885,0,0
0:3:38.930,419.819,53.4551,0,0.000885,0,0
0:3:41.826,425.041,54.1169,0,0.000885,0,0
0:3:44.723,431.962,54.9995,0,0.000885,0,0
0:3:47.626,437.416,55.6958,0,0.000885,0,0
0:3:50.530,442.696,56.3646,0,0.000885,0,0
0:3:53.428,448.265,57.0748,0,0.000885,0,0
0:3:56.325,454.07,57.8125,0,0.000885,0,0
0:3:59.229,460.115,58.5848,0,0.000885,0,0
0:4:2.119,465.684,59.2949,0,0.000885,0,0
0:4:5.031,471.552,60.0395,0,0.000885,0,0
0:4:7.929,477.414,60.7842,0,0.000885,0,0
0:4:10.828,483.397,61.5495,0,0.000885,0,0
0:4:13.731,488.326,62.1769,0,0.000885,0,0
0:4:16.626,494.424,62.9491,0,0.000885,0,0
0:4:19.533,499.233,63.5628,0,0.000885,0,0
0:4:22.430,506.212,64.4522,0,0.000885,0,0
0:4:25.332,511.141,65.0796,0,0.000885,0,0
0:4:28.239,516.474,65.7622,0,0.000885,0,0
0:4:31.132,522.751,66.562,0,0.000885,0,0
0:4:34.033,527.737,67.1963,0,0.000885,0,0
0:4:36.931,534.071,68.003,0,0.000885,0,0
0:4:39.824,539.645,68.7063,0,0.000885,0,0
0:4:42.732,545.801,69.4923,0,0.000885,0,0
0:4:45.637,551.255,70.1886,0,0.000885,0,0
0:4:48.539,557.358,70.9677,0,0.000885,0,0
0:4:51.434,562.927,71.671,0,0.000885,0,0
0:4:54.343,568.558,72.3881,0,0.000885,0,0
0:4:57.230,574.128,73.0982,0,0.000885,0,0
0:5:0.139,578.998,73.7187,0,0.000885,0,0
0:5:3.031,585.506,74.5461,0,0.000885,0,0
0:5:5.936,591.729,75.339,0,0.000885,0,0
0:5:8.845,596.658,75.9664,0,0.000885,0,0
0:5:11.735,602.707,76.7386,0,0.000885,0,0
0:5:14.642,608.339,77.4557,0,0.000885,0,0
0:5:17.544,614.033,78.1797,0,0.000885,0,0
0:5:20.441,619.081,78.8209,0,0.000885,0,0
0:5:23.341,625.189,79.6,0,0.000885,0,0
0:5:26.241,631.118,80.3584,0,0.000885,0,0
0:5:29.150,636.87,81.0892,0,0.000885,0,0
0:5:32.035,642.15,81.758,0,0.000885,0,0
0:5:34.948,649.018,82.6337,0,0.000885,0,0
0:5:37.845,653.422,83.199,0,0.000885,0,0
0:5:40.734,659.057,83.9161,0,0.000885,0,0
0:5:43.644,665.512,84.7366,0,0.000885,0,0
0:5:46.537,671.148,85.4536,0,0.000885,0,0
0:5:49.446,676.081,86.081,0,0.000885,0,0
0:5:52.343,682.419,86.8877,0,0.000885,0,0
0:5:55.245,687.642,87.5565,0,0.000885,0,0
0:5:58.149,693.865,88.3425,0,0.000885,0,0
0:6:1.042,699.207,89.0251,0,0.000885,0,0
0:6:3.953,704.901,89.7491,0,0.000885,0,0
0:6:6.838,710.71,90.4937,0,0.000885,0,0
0:6:9.752,716.404,91.2176,0,0.000885,0,0
0:6:12.638,721.688,91.8864,0,0.000885,0,0
0:6:15.539,727.324,92.6035,0,0.000885,0,0
0:6:18.454,733.663,93.4102,0,0.000885,0,0
0:6:21.347,738.654,94.0514,0,0.000885,0,0
0:6:24.252,744.993,94.8581,0,0.000885,0,0
0:6:27.130,750.099,95.5062,0,0.000885,0,0
0:6:30.042,755.851,96.237,0,0.000885,0,0
0:6:32.948,762.31,97.0575,0,0.000885,0,0
0:6:35.843,767.358,97.7056,0,0.000885,0,0
0:6:38.759,773.283,98.4571,0,0.000885,0,0
0:6:41.640,779.333,99.2293,0,0.000885,0,0
0:6:44.547,784.613,99.8981,0,0.000885,0,0
0:6:47.444,790.133,100.601,0,0.000885,0,0
0:6:50.346,796.294,101.387,0,0.000885,0,0
0:6:53.249,802.281,102.153,0,0.000885,0,0
0:6:56.148,807.33,102.794,0,0.000885,0,0
0:6:59.056,812.788,103.49,0,0.000885,0,0
0:7:1.937,818.775,104.249,0,0.000885,0,0
0:7:4.851,824.647,105,0,0.000885,0,0
0:7:7.754,830.456,105.738,0,0.000885,0,0
0:7:10.653,835.919,106.434,0,0.000885,0,0
0:7:13.557,841.67,107.165,0,0.000885,0,0
0:7:16.441,847.306,107.882,0,0.000885,0,0
0:7:19.356,853.236,108.634,0,0.000885,0,0
0:7:22.240,858.694,109.33,0,0.000885,0,0
0:7:25.147,864.623,110.089,0,0.000885,0,0
0:7:28.053,869.903,110.757,0,0.000885,0,0
0:7:30.954,875.539,111.474,0,0.000885,0,0
0:7:33.853,881.762,112.267,0,0.000885,0,0
0:7:36.745,886.691,112.895,0,0.000885,0,0
0:7:39.656,892.914,113.688,0,0.000885,0,0
0:7:42.547,898.665,114.418,0,0.000885,0,0
0:7:45.449,904.653,115.184,0,0.000885,0,0
0:7:48.361,909.586,115.811,0,0.000885,0,0
0:7:51.251,915.337,116.542,0,0.000885,0,0
0:7:54.158,921.325,117.307,0,0.000885,0,0
0:7:57.049,926.96,118.024,0,0.000885,0,0
0:7:59.952,932.828,118.769,0,0.000885,0,0
0:8:2.853,938.464,119.486,0,0.000885,0,0
0:8:5.750,944.157,120.217,0,0.000885,0,0
0:8:8.666,950.265,120.989,0,0.000885,0,0
0:8:11.551,955.607,121.672,0,0.000885,0,0
0:8:14.463,961.474,122.416,0,0.000885,0,0
0:8:17.351,967.226,123.154,0,0.000885,0,0
0:8:20.253,973.275,123.919,0,0.000885,0,0
0:8:23.154,978.204,124.547,0,0.000885,0,0
0:8:26.052,983.782,125.257,0,0.000885,0,0
0:8:28.960,989.769,126.022,0,0.000885,0,0
0:8:31.846,995.285,126.726,0,0.000885,0,0
0:8:34.764,1000.51,127.388,0,0.000885,0,0
0:8:37.648,1006.44,128.146,0,0.000885,0,0
0:8:40.553,1012.31,128.891,0,0.000885,0,0
0:8:43.459,1018.12,129.628,0,0.000885,0,0
0:8:46.346,1023.64,130.332,0,0.000885,0,0
0:8:49.250,1029.51,131.083,0,0.000885,0,0
0:8:52.146,1034.97,131.773,0,0.000885,0,0
0:8:55.055,1040.72,132.51,0,0.000885,0,0
0:8:57.955,1046.36,133.227,0,0.000885,0,0
0:9:0.850,1052.05,133.951,0,0.000885,0,0
0:9:3.759,1057.68,134.668,0,0.000885,0,0
0:9:6.648,1063.97,135.468,0,0.000885,0,0
0:9:9.562,1069.07,136.116,0,0.000885,0,0
0:9:12.445,1075.41,136.923,0,0.000885,0,0
0:9:15.348,1080.93,137.626,0,0.000885,0,0
0:9:18.260,1086.45,138.33,0,0.000885,0,0
0:9:21.154,1091.9,139.026,0,0.000885,0,0
0:9:24.063,1097.42,139.729,0,0.000885,0,0
0:9:26.962,1103.82,140.543,0,0.000885,0,0
0:9:29.864,1108.75,141.17,0,0.000885,0,0
0:9:32.755,1115.15,141.984,0,0.000885,0,0
0:9:35.650,1120.96,142.728,0,0.000885,0,0
0:9:38.562,1126.65,143.452,0,0.000885,0,0
0:9:41.459,1132.23,144.162,0,0.000885,0,0
0:9:44.372,1138.57,144.969,0,0.000885,0,0
0:9:47.254,1143.26,145.562,0,0.000885,0,0
0:9:50.165,1149.14,146.314,0,0.000885,0,0
0:9:53.063,1155.53,147.127,0,0.000885,0,0
0:9:55.958,1160.41,147.748,0,0.000885,0,0
0:9:58.866,1165.81,148.437,0,0.000885,0,0
0:10:1.766,1172.32,149.265,0,0.000885,0,0
0:10:4.676,1177.49,149.92,0,0.000885,0,0
0:10:7.556,1183.65,150.706,0,0.000885,0,0
0:10:10.457,1188.99,151.388,0,0.000885,0,0
0:10:13.359,1195.33,152.195,0,0.000885,0,0
0:10:16.268,1200.5,152.85,0,0.000885,0,0
0:10:19.175,1206.13,153.567,0,0.000885,0,0
0:10:22.051,1211.94,154.312,0,0.000885,0,0
0:10:24.960,1217.17,154.973,0,0.000885,0,0
0:10:27.855,1222.63,155.67,0,0.000885,0,0
0:10:30.756,1228.62,156.435,0,0.000885,0,0
0:10:33.671,1234.48,157.18,0,0.000885,0,0
0:10:36.551,1239.83,157.862,0,0.000885,0,0
0:10:39.455,1245.87,158.628,0,0.000885,0,0
0:10:42.351,1251.51,159.345,0,0.000885,0,0
0:10:45.262,1257.44,160.103,0,0.000885,0,0
0:10:48.178,1262.78,160.779,0,0.000885,0,0
0:10:51.068,1268.53,161.517,0,0.000885,0,0
0:10:53.978,1274.52,162.275,0,0.000885,0,0
0:10:56.855,1279.27,162.882,0,0.000885,0,0
0:10:59.761,1286.02,163.744,0,0.000885,0,0
0:11:2.669,1291.07,164.385,0,0.000885,0,0
0:11:5.568,1297.29,165.178,0,0.000885,0,0
0:11:8.481,1303.1,165.915,0,0.000885,0,0
0:11:11.366,1308.86,166.646,0,0.000885,0,0
0:11:14.277,1314.2,167.329,0,0.000885,0,0
0:11:17.175,1320.25,168.101,0,0.000885,0,0
0:11:20.073,1325.59,168.777,0,0.000885,0,0
0:11:22.954,1330.81,169.446,0,0.000885,0,0
0:11:25.804,1327.41,169.011,0,0.000885,0,0