File: DataFile2021-06-07_035438.csv
Test ID:,Date Tested:,Time:,Test Type:,Diameter Avg. (mm):,Cyl. Corr. Factor:,Height (mm):,Age (days):,Weight (kN):,Break Type:,Ramp Rate (MPa/s):,Load at Break (kN):,Stress at Break (MPa):
12,6/7/2021,03:54,Cylinder,100,1,200,0,3.6,3,0.25,586.92,74.73
Sample Time,Load (kN),Stress (MPa),Long. Strain,Trans. Strain,Chan1 Deflection (mm),Chan2 Deflection (mm)
0:0:14.971,5.80493,0.737739,0,0.000885,0,0
0:0:16.358,8.85641,1.13074,0,0.000885,0,0
0:0:17.760,9.96846,1.26864,0,0.000885,0,0
0:0:19.160,13.0778,1.66853,0,0.000885,0,0
0:0:20.565,15.1328,1.92364,0,0.000885,0,0
0:0:21.974,18.5936,2.3649,0,0.000885,0,0
0:0:23.368,21.6406,2.7579,0,0.000885,0,0
0:0:24.759,24.5141,3.12333,0,0.000885,0,0
0:0:26.167,27.8014,3.53701,0,0.000885,0,0
0:0:27.568,30.6749,3.90243,0,0.000885,0,0
0:0:28.962,33.3127,4.24028,0,0.000885,0,0
0:0:30.354,35.5991,4.52986,0,0.000885,0,0
0:0:31.768,38.2992,4.87459,0,0.000885,0,0
0:0:33.164,41.1149,5.23312,0,0.000885,0,0
0:0:34.558,44.2242,5.63302,0,0.000885,0,0
0:0:35.974,46.0391,5.86054,0,0.000885,0,0
0:0:37.375,49.0906,6.25354,0,0.000885,0,0
0:0:38.769,51.7284,6.58449,0,0.000885,0,0
0:0:40.159,54.722,6.9706,0,0.000885,0,0
0:0:41.575,57.7112,7.34981,0,0.000885,0,0
0:0:42.971,60.2334,7.66697,0,0.000885,0,0
0:0:44.363,63.0491,8.0255,0,0.000885,0,0
0:0:45.764,65.6869,8.36334,0,0.000885,0,0
0:0:47.170,68.2713,8.69429,0,0.000885,0,0
0:0:48.567,71.2027,9.06661,0,0.000885,0,0
0:0:49.958,74.0184,9.42513,0,0.000885,0,0
0:0:51.373,76.7719,9.77677,0,0.000885,0,0
0:0:52.768,79.0004,10.0595,0,0.000885,0,0
0:0:54.162,82.5234,10.5076,0,0.000885,0,0
0:0:55.571,85.3347,10.8661,0,0.000885,0,0
0:0:56.980,88.2082,11.2316,0,0.000885,0,0
0:0:58.375,90.4991,11.5211,0,0.000885,0,0
0:0:59.766,92.9011,11.8314,0,0.000885,0,0
0:1:1.176,96.0682,12.2313,0,0.000885,0,0
0:1:2.576,98.7105,12.5691,0,0.000885,0,0
0:1:3.972,101.642,12.9415,0,0.000885,0,0
0:1:5.363,103.928,13.231,0,0.000885,0,0
0:1:6.779,106.45,13.5551,0,0.000885,0,0
0:1:8.175,109.733,13.9688,0,0.000885,0,0
0:1:9.566,112.375,14.3066,0,0.000885,0,0
0:1:10.974,115.422,14.6996,0,0.000885,0,0
0:1:12.374,118.18,15.0444,0,0.000885,0,0
0:1:13.770,120.702,15.3684,0,0.000885,0,0
0:1:15.161,123.403,15.7132,0,0.000885,0,0
0:1:16.576,126.628,16.1199,0,0.000885,0,0
0:1:17.971,129.03,16.4302,0,0.000885,0,0
0:1:19.365,131.787,16.7818,0,0.000885,0,0
0:1:20.764,134.545,17.1335,0,0.000885,0,0
0:1:22.173,137.183,17.4644,0,0.000885,0,0
0:1:23.568,139.941,17.8161,0,0.000885,0,0
0:1:24.959,142.343,18.1263,0,0.000885,0,0
0:1:26.373,145.746,18.5538,0,0.000885,0,0
0:1:27.771,148.326,18.8847,0,0.000885,0,0
0:1:29.162,150.732,19.195,0,0.000885,0,0
0:1:30.562,154.015,19.6087,0,0.000885,0,0
0:1:31.969,156.48,19.9258,0,0.000885,0,0
0:1:33.365,158.766,20.2154,0,0.000885,0,0
0:1:34.765,161.697,20.5877,0,0.000885,0,0
0:1:36.174,164.397,20.9325,0,0.000885,0,0
0:1:37.574,167.387,21.3117,0,0.000885,0,0
0:1:38.970,170.438,21.6978,0,0.000885,0,0
0:1:40.367,172.782,22.0012,0,0.000885,0,0
0:1:41.783,176.012,22.408,0,0.000885,0,0
0:1:43.179,179.059,22.801,0,0.000885,0,0
0:1:44.571,180.994,23.0423,0,0.000885,0,0
0:1:45.972,183.752,23.3939,0,0.000885,0,0
0:1:47.377,186.452,23.7386,0,0.000885,0,0
0:1:48.772,189.147,24.0834,0,0.000885,0,0
0:1:50.165,192.257,24.4764,0,0.000885,0,0
0:1:51.571,194.721,24.7935,0,0.000885,0,0
0:1:52.960,198.062,25.221,0,0.000885,0,0
0:1:54.365,200.584,25.5382,0,0.000885,0,0
0:1:55.755,202.754,25.814,0,0.000885,0,0
0:1:57.149,205.864,26.2139,0,0.000885,0,0
0:1:58.562,208.737,26.5793,0,0.000885,0,0
0:1:59.966,211.202,26.8896,0,0.000885,0,0
0:2:1.367,213.782,27.2205,0,0.000885,0,0
0:2:2.765,217.006,27.6273,0,0.000885,0,0
0:2:4.144,219.707,27.972,0,0.000885,0,0
0:2:5.571,221.935,28.2547,0,0.000885,0,0
0:2:6.975,225.16,28.6684,0,0.000885,0,0
0:2:8.364,228.207,29.0545,0,0.000885,0,0
0:2:9.753,231.316,29.4544,0,0.000885,0,0
0:2:11.171,233.603,29.744,0,0.000885,0,0
0:2:12.566,236.419,30.1025,0,0.000885,0,0
0:2:13.955,238.825,30.4059,0,0.000885,0,0
0:2:15.374,241.583,30.7575,0,0.000885,0,0
0:2:16.776,243.811,31.0402,0,0.000885,0,0
0:2:18.167,246.627,31.3987,0,0.000885,0,0
0:2:19.567,250.204,31.8538,0,0.000885,0,0
0:2:20.965,252.374,32.1365,0,0.000885,0,0
0:2:22.368,255.364,32.5157,0,0.000885,0,0
0:2:23.767,257.828,32.8259,0,0.000885,0,0
0:2:25.157,260.586,33.1776,0,0.000885,0,0
0:2:26.559,264.278,33.6464,0,0.000885,0,0
0:2:27.968,266.333,33.9084,0,0.000885,0,0
0:2:29.366,268.383,34.1704,0,0.000885,0,0
0:2:30.773,271.435,34.5634,0,0.000885,0,0
0:2:32.179,274.776,34.984,0,0.000885,0,0
0:2:33.569,277.711,35.3563,0,0.000885,0,0
0:2:34.958,279.94,35.6459,0,0.000885,0,0
0:2:36.363,282.462,35.9631,0,0.000885,0,0
0:2:37.773,285.803,36.3905,0,0.000885,0,0
0:2:39.161,288.325,36.7077,0,0.000885,0,0
0:2:40.558,291.198,37.08,0,0.000885,0,0
0:2:41.960,293.841,37.411,0,0.000885,0,0
0:2:43.373,296.945,37.8108,0,0.000885,0,0
0:2:44.760,298.943,38.0591,0,0.000885,0,0
0:2:46.159,302.11,38.4659,0,0.000885,0,0
0:2:47.575,305.277,38.8657,0,0.000885,0,0
0:2:48.963,306.803,39.0657,0,0.000885,0,0
0:2:50.360,310.553,39.5414,0,0.000885,0,0
0:2:51.763,313.662,39.9344,0,0.000885,0,0
0:2:53.168,315.89,40.2171,0,0.000885,0,0
0:2:54.554,318.764,40.5894,0,0.000885,0,0
0:2:55.964,321.113,40.8859,0,0.000885,0,0
0:2:57.368,324.102,41.2651,0,0.000885,0,0
0:2:58.765,326.566,41.5823,0,0.000885,0,0
0:3:0.164,329.675,41.9753,0,0.000885,0,0
0:3:1.568,332.255,42.3062,0,0.000885,0,0
0:3:2.970,335.187,42.6785,0,0.000885,0,0
0:3:4.365,337.709,42.9957,0,0.000885,0,0
0:3:5.763,340.64,43.3749,0,0.000885,0,0
0:3:7.171,343.928,43.7886,0,0.000885,0,0
0:3:8.560,346.036,44.0575,0,0.000885,0,0
0:3:9.959,348.5,44.3747,0,0.000885,0,0
0:3:11.365,351.961,44.8159,0,0.000885,0,0
0:3:12.774,353.838,45.0503,0,0.000885,0,0
0:3:14.160,356.827,45.4296,0,0.000885,0,0
0:3:15.569,359.528,45.7743,0,0.000885,0,0
0:3:16.974,362.752,46.188,0,0.000885,0,0
0:3:18.376,364.923,46.4638,0,0.000885,0,0
0:3:19.777,368.442,46.9119,0,0.000885,0,0
0:3:21.175,370.435,47.167,0,0.000885,0,0
0:3:22.571,373.37,47.5394,0,0.000885,0,0
0:3:23.972,376.244,47.9048,0,0.000885,0,0
0:3:25.358,379.233,48.284,0,0.000885,0,0
0:3:26.761,381.755,48.608,0,0.000885,0,0
0:3:28.152,384.398,48.9459,0,0.000885,0,0
0:3:29.561,386.8,49.2493,0,0.000885,0,0
0:3:30.961,390.26,49.6905,0,0.000885,0,0
0:3:32.377,392.253,49.9456,0,0.000885,0,0
0:3:33.765,395.362,50.3386,0,0.000885,0,0
0:3:35.166,398.414,50.7247,0,0.000885,0,0
0:3:36.572,400.936,51.0488,0,0.000885,0,0
0:3:37.971,403.458,51.3728,0,0.000885,0,0
0:3:39.371,407.15,51.8417,0,0.000885,0,0
0:3:40.767,409.147,52.0968,0,0.000885,0,0
0:3:42.174,412.079,52.4691,0,0.000885,0,0
0:3:43.574,414.837,52.8207,0,0.000885,0,0
0:3:44.955,417.532,53.1586,0,0.000885,0,0
0:3:46.361,420.348,53.5171,0,0.000885,0,0
0:3:47.759,423.164,53.8756,0,0.000885,0,0
0:3:49.166,426.037,54.248,0,0.000885,0,0
0:3:50.564,428.444,54.5513,0,0.000885,0,0
0:3:51.971,431.491,54.9374,0,0.000885,0,0
0:3:53.374,433.955,55.2546,0,0.000885,0,0
0:3:54.774,436.006,55.5166,0,0.000885,0,0
0:3:56.170,439.467,55.9579,0,0.000885,0,0
0:3:57.578,442.518,56.344,0,0.000885,0,0
0:3:58.957,445.04,56.6611,0,0.000885,0,0
0:4:0.378,447.798,57.0127,0,0.000885,0,0
0:4:1.781,450.436,57.3506,0,0.000885,0,0
0:4:3.171,453.603,57.7574,0,0.000885,0,0
0:4:4.562,456.067,58.0676,0,0.000885,0,0
0:4:5.960,458.705,58.4055,0,0.000885,0,0
0:4:7.377,461.699,58.7847,0,0.000885,0,0
0:4:8.765,464.101,59.0881,0,0.000885,0,0
0:4:10.177,466.974,59.4604,0,0.000885,0,0
0:4:11.585,469.732,59.8051,0,0.000885,0,0
0:4:12.970,472.019,60.1016,0,0.000885,0,0
0:4:14.371,476.009,60.6049,0,0.000885,0,0
0:4:15.768,478.001,60.86,0,0.000885,0,0
0:4:17.171,480.288,61.1496,0,0.000885,0,0
0:4:18.562,483.281,61.5357,0,0.000885,0,0
0:4:19.983,486.386,61.9287,0,0.000885,0,0
0:4:21.389,488.677,62.2183,0,0.000885,0,0
0:4:22.777,491.551,62.5837,0,0.000885,0,0
0:4:24.179,494.598,62.9767,0,0.000885,0,0
0:4:25.565,497.298,63.3146,0,0.000885,0,0
0:4:26.964,500.171,63.6869,0,0.000885,0,0
0:4:28.369,503.045,64.0523,0,0.000885,0,0
0:4:29.751,505.389,64.3488,0,0.000885,0,0
0:4:31.150,508.441,64.7349,0,0.000885,0,0
0:4:32.539,510.554,65.0038,0,0.000885,0,0
0:4:33.926,513.778,65.4175,0,0.000885,0,0
0:4:35.310,516.185,65.7208,0,0.000885,0,0
0:4:36.715,519.232,66.1138,0,0.000885,0,0
0:4:38.098,521.581,66.4103,0,0.000885,0,0
0:4:39.484,524.218,66.7481,0,0.000885,0,0
0:4:40.885,527.501,67.1618,0,0.000885,0,0
0:4:42.279,530.317,67.5204,0,0.000885,0,0
0:4:43.672,532.488,67.7961,0,0.000885,0,0
0:4:45.066,535.539,68.1891,0,0.000885,0,0
0:4:46.472,538.528,68.5684,0,0.000885,0,0
0:4:47.871,540.877,68.8648,0,0.000885,0,0
0:4:49.274,543.688,69.2234,0,0.000885,0,0
0:4:50.666,546.976,69.6439,0,0.000885,0,0
0:4:52.083,549.262,69.9335,0,0.000885,0,0
0:4:53.475,552.078,70.2921,0,0.000885,0,0
0:4:54.869,554.658,70.623,0,0.000885,0,0
0:4:56.274,557.122,70.9333,0,0.000885,0,0
0:4:57.673,560.289,71.3401,0,0.000885,0,0
0:4:59.075,562.927,71.671,0,0.000885,0,0
0:5:0.470,565.565,72.0088,0,0.000885,0,0
0:5:1.873,568.91,72.4363,0,0.000885,0,0
0:5:3.286,570.845,72.6845,0,0.000885,0,0
0:5:4.677,569.964,72.5673,0,0.000885,0,0
0:5:6.088,576.943,73.4567,0,0.000885,0,0
0:5:7.473,580.875,73.9601,0,0.000885,0,0
0:5:8.875,583.749,74.3255,0,0.000885,0,0
0:5:10.268,585.862,74.5944,0,0.000885,0,0
0:5:11.674,553.016,70.4093,0,0.000885,0,0
0:5:13.082,533.72,67.9547,0,0.000885,0,0
0:5:14.483,528.911,67.3411,0,0.000885,0,0
0:5:15.879,509.437,64.8659,0,0.000885,0,0
0:5:17.283,503.868,64.1557,0,0.000885,0,0
0:5:18.682,504.219,64.1971,0,0.000885,0,0
0:5:20.085,484.803,61.7288,0,0.000885,0,0
0:5:21.487,472.784,60.1981,0,0.000885,0,0
0:5:22.883,470.435,59.8948,0,0.000885,0,0
0:5:24.274,469.617,59.7913,0,0.000885,0,0
0:5:25.683,461.636,58.7778,0,0.000885,0,0
0:5:27.084,460.698,58.6606,0,0.000885,0,0
0:5:28.483,458.763,58.4124,0,0.000885,0,0
0:5:29.884,457.944,58.309,0,0.000885,0,0
0:5:31.290,442.754,56.3715,0,0.000885,0,0
0:5:31.449,423.164,53.8756,0,0.000885,0,0