File: DataFile2021-06-08_052343.csv
Test ID:,Date Tested:,Time:,Test Type:,Diameter Avg. (mm):,Cyl. Corr. Factor:,Height (mm):,Age (days):,Weight (kN):,Break Type:,Ramp Rate (MPa/s):,Load at Break (kN):,Stress at Break (MPa):
12,6/8/2021,05:23,Cylinder,150,1,300,0,3.6,1,0.24,829.22,46.93
Sample Time,Load (kN),Stress (MPa),Long. Strain,Trans. Strain,Chan1 Deflection (mm),Chan2 Deflection (mm)
0:0:16.853,8.85641,0.503317,0,0.000885,0,0
0:0:17.650,16.1293,0.910108,0,0.000885,0,0
0:0:18.440,15.5421,0.882529,0,0.000885,0,0
0:0:19.234,16.365,0.923897,0,0.000885,0,0
0:0:20.027,18.5936,1.0549,0,0.000885,0,0
0:0:20.824,21.7029,1.22727,0,0.000885,0,0
0:0:21.619,26.0399,1.47548,0,0.000885,0,0
0:0:22.419,31.0263,1.75816,0,0.000885,0,0
0:0:23.229,34.367,1.94432,0,0.000885,0,0
0:0:24.037,37.3606,2.11669,0,0.000885,0,0
0:0:24.832,41.1727,2.33043,0,0.000885,0,0
0:0:25.627,44.1619,2.4959,0,0.000885,0,0
0:0:26.425,48.2677,2.73032,0,0.000885,0,0
0:0:27.226,51.5549,2.91648,0,0.000885,0,0
0:0:28.036,55.1313,3.11643,0,0.000885,0,0
0:0:28.836,58.7699,3.32327,0,0.000885,0,0
0:0:29.636,62.4041,3.53012,0,0.000885,0,0
0:0:30.429,65.4556,3.70248,0,0.000885,0,0
0:0:31.228,68.7384,3.88864,0,0.000885,0,0
0:0:32.023,72.8441,4.12306,0,0.000885,0,0
0:0:32.835,75.9534,4.29543,0,0.000885,0,0
0:0:33.642,80.1169,4.53675,0,0.000885,0,0
0:0:34.436,82.8748,4.68843,0,0.000885,0,0
0:0:35.235,86.8026,4.90907,0,0.000885,0,0
0:0:36.030,90.5569,5.1228,0,0.000885,0,0
0:0:36.831,93.8975,5.31586,0,0.000885,0,0
0:0:37.633,96.949,5.48823,0,0.000885,0,0
0:0:38.442,101.113,5.72265,0,0.000885,0,0
0:0:39.241,103.986,5.88123,0,0.000885,0,0
0:0:40.039,108.212,6.12254,0,0.000885,0,0
0:0:40.835,110.734,6.26733,0,0.000885,0,0
0:0:41.628,114.426,6.47418,0,0.000885,0,0
0:0:42.437,118.652,6.71549,0,0.000885,0,0
0:0:43.245,122.695,6.94302,0,0.000885,0,0
0:0:44.046,125.631,7.10849,0,0.000885,0,0
0:0:44.838,129.443,7.32223,0,0.000885,0,0
0:0:45.639,132.784,7.51529,0,0.000885,0,0
0:0:46.433,136.538,7.72902,0,0.000885,0,0
0:0:47.233,139.705,7.90829,0,0.000885,0,0
0:0:48.043,143.282,8.10823,0,0.000885,0,0
0:0:48.845,146.92,8.31508,0,0.000885,0,0
0:0:49.643,150.145,8.49434,0,0.000885,0,0
0:0:50.439,153.664,8.69429,0,0.000885,0,0
0:0:51.239,157.712,8.92182,0,0.000885,0,0
0:0:52.033,161.524,9.14245,0,0.000885,0,0
0:0:52.843,164.513,9.30792,0,0.000885,0,0
0:0:53.652,167.858,9.50098,0,0.000885,0,0
0:0:54.447,171.728,9.71471,0,0.000885,0,0
0:0:55.248,175.304,9.92156,0,0.000885,0,0
0:0:56.042,179.294,10.1491,0,0.000885,0,0
0:0:56.841,182.11,10.3077,0,0.000885,0,0
0:0:57.646,186.452,10.549,0,0.000885,0,0
0:0:58.453,189.912,10.7489,0,0.000885,0,0
0:0:59.253,192.021,10.8661,0,0.000885,0,0
0:1:0.043,195.953,11.0868,0,0.000885,0,0
0:1:0.835,199.996,11.3143,0,0.000885,0,0
0:1:1.624,203.226,11.5005,0,0.000885,0,0
0:1:2.419,207.799,11.7556,0,0.000885,0,0
0:1:3.223,211.317,11.9555,0,0.000885,0,0
0:1:4.020,213.955,12.1072,0,0.000885,0,0
0:1:4.814,217.767,12.3209,0,0.000885,0,0
0:1:5.602,220.761,12.4933,0,0.000885,0,0
0:1:6.395,224.689,12.7139,0,0.000885,0,0
0:1:7.191,227.74,12.8863,0,0.000885,0,0
0:1:7.995,231.73,13.1138,0,0.000885,0,0
0:1:8.795,235.48,13.3276,0,0.000885,0,0
0:1:9.585,238.767,13.5137,0,0.000885,0,0
0:1:10.376,242.108,13.6999,0,0.000885,0,0
0:1:11.196,245.804,13.9067,0,0.000885,0,0
0:1:11.990,249.265,14.1067,0,0.000885,0,0
0:1:12.795,253.193,14.3273,0,0.000885,0,0
0:1:13.594,256.244,14.4997,0,0.000885,0,0
0:1:14.382,259.585,14.6927,0,0.000885,0,0
0:1:15.182,262.694,14.8651,0,0.000885,0,0
0:1:15.982,266.684,15.0926,0,0.000885,0,0
0:1:16.791,269.616,15.2581,0,0.000885,0,0
0:1:17.596,273.192,15.458,0,0.000885,0,0
0:1:18.399,277.827,15.72,0,0.000885,0,0
0:1:19.191,281.466,15.9269,0,0.000885,0,0
0:1:19.991,285.158,16.1337,0,0.000885,0,0
0:1:20.799,288.267,16.313,0,0.000885,0,0
0:1:21.591,291.492,16.4923,0,0.000885,0,0
0:1:22.382,295.011,16.6922,0,0.000885,0,0
0:1:23.188,298.823,16.9128,0,0.000885,0,0
0:1:23.992,302.283,17.1059,0,0.000885,0,0
0:1:24.786,305.508,17.2852,0,0.000885,0,0
0:1:25.594,309.383,17.5058,0,0.000885,0,0
0:1:26.383,313.137,17.7195,0,0.000885,0,0
0:1:27.183,316.42,17.9057,0,0.000885,0,0
0:1:27.988,319.703,18.0918,0,0.000885,0,0
0:1:28.791,323.221,18.2918,0,0.000885,0,0
0:1:29.586,326.918,18.4986,0,0.000885,0,0
0:1:30.392,330.908,18.7262,0,0.000885,0,0
0:1:31.186,334.426,18.9261,0,0.000885,0,0
0:1:31.992,337.358,19.0916,0,0.000885,0,0
0:1:32.798,341.054,19.2984,0,0.000885,0,0
0:1:33.597,344.337,19.4846,0,0.000885,0,0
0:1:34.386,348.265,19.7052,0,0.000885,0,0
0:1:35.184,352.139,19.9258,0,0.000885,0,0
0:1:35.996,355.364,20.112,0,0.000885,0,0
0:1:36.794,358.94,20.312,0,0.000885,0,0
0:1:37.598,362.228,20.4981,0,0.000885,0,0
0:1:38.400,365.92,20.705,0,0.000885,0,0
0:1:39.195,369.674,20.9187,0,0.000885,0,0
0:1:39.990,373.019,21.1117,0,0.000885,0,0
0:1:40.793,375.95,21.2772,0,0.000885,0,0
0:1:41.593,379.469,21.4703,0,0.000885,0,0
0:1:42.395,383.103,21.6771,0,0.000885,0,0
0:1:43.200,386.8,21.8909,0,0.000885,0,0
0:1:43.997,390.905,22.1184,0,0.000885,0,0
0:1:44.788,394.544,22.3252,0,0.000885,0,0
0:1:45.584,397.942,22.5183,0,0.000885,0,0
0:1:46.389,401.581,22.7251,0,0.000885,0,0
0:1:47.176,405.629,22.9526,0,0.000885,0,0
0:1:47.982,408.267,23.1043,0,0.000885,0,0
0:1:48.783,411.901,23.3112,0,0.000885,0,0
0:1:49.594,415.713,23.5249,0,0.000885,0,0
0:1:50.394,418.297,23.6697,0,0.000885,0,0
0:1:51.194,421.874,23.8765,0,0.000885,0,0
0:1:51.983,425.979,24.1041,0,0.000885,0,0
0:1:52.787,428.733,24.2627,0,0.000885,0,0
0:1:53.589,432.372,24.4695,0,0.000885,0,0
0:1:54.387,436.713,24.7108,0,0.000885,0,0
0:1:55.179,440.934,24.9521,0,0.000885,0,0
0:1:55.989,443.986,25.1245,0,0.000885,0,0
0:1:56.797,447.736,25.3382,0,0.000885,0,0
0:1:57.602,450.32,25.483,0,0.000885,0,0
0:1:58.403,454.657,25.7312,0,0.000885,0,0
0:1:59.195,457.651,25.8967,0,0.000885,0,0
0:1:59.995,461.343,26.1036,0,0.000885,0,0
0:2:0.795,464.221,26.269,0,0.000885,0,0
0:2:1.595,467.855,26.4759,0,0.000885,0,0
0:2:2.389,470.964,26.6482,0,0.000885,0,0
0:2:3.192,475.128,26.8896,0,0.000885,0,0
0:2:3.999,479.118,27.1102,0,0.000885,0,0
0:2:4.800,482.049,27.2757,0,0.000885,0,0
0:2:5.587,486.035,27.5032,0,0.000885,0,0
0:2:6.387,489.553,27.7031,0,0.000885,0,0
0:2:7.189,493.486,27.9238,0,0.000885,0,0
0:2:7.996,497.298,28.1444,0,0.000885,0,0
0:2:8.793,499.82,28.2823,0,0.000885,0,0
0:2:9.603,503.454,28.4891,0,0.000885,0,0
0:2:10.393,506.857,28.6822,0,0.000885,0,0
0:2:11.184,510.433,28.8821,0,0.000885,0,0
0:2:11.991,514.014,29.089,0,0.000885,0,0
0:2:12.797,517.826,29.3027,0,0.000885,0,0
0:2:13.598,520.994,29.482,0,0.000885,0,0
0:2:14.390,524.57,29.6819,0,0.000885,0,0
0:2:15.185,528.676,29.9164,0,0.000885,0,0
0:2:15.977,532.021,30.1094,0,0.000885,0,0
0:2:16.767,535.655,30.3094,0,0.000885,0,0
0:2:17.560,539.231,30.5162,0,0.000885,0,0
0:2:18.365,542.105,30.6748,0,0.000885,0,0
0:2:19.162,545.45,30.8678,0,0.000885,0,0
0:2:19.954,549.729,31.1091,0,0.000885,0,0
0:2:20.742,552.896,31.2884,0,0.000885,0,0
0:2:21.533,556.299,31.4815,0,0.000885,0,0
0:2:22.334,560.583,31.7228,0,0.000885,0,0
0:2:23.134,563.981,31.9158,0,0.000885,0,0
0:2:23.926,566.623,32.0675,0,0.000885,0,0
0:2:24.714,570.026,32.2537,0,0.000885,0,0
0:2:25.508,574.363,32.5019,0,0.000885,0,0
0:2:26.302,577.824,32.6949,0,0.000885,0,0
0:2:27.104,581.285,32.8949,0,0.000885,0,0
0:2:27.907,584.394,33.0673,0,0.000885,0,0
0:2:28.707,588.615,33.3086,0,0.000885,0,0
0:2:29.494,591.547,33.474,0,0.000885,0,0
0:2:30.286,595.185,33.6809,0,0.000885,0,0
0:2:31.081,598.121,33.8464,0,0.000885,0,0
0:2:31.873,601.88,34.0601,0,0.000885,0,0
0:2:32.677,606.164,34.3014,0,0.000885,0,0
0:2:33.483,609.335,34.4807,0,0.000885,0,0
0:2:34.282,612.622,34.6668,0,0.000885,0,0
0:2:35.092,616.497,34.8875,0,0.000885,0,0
0:2:35.889,619.958,35.0805,0,0.000885,0,0
0:2:36.681,623.303,35.2736,0,0.000885,0,0
0:2:37.490,627.706,35.5218,0,0.000885,0,0
0:2:38.295,630.291,35.6666,0,0.000885,0,0
0:2:39.108,634.459,35.901,0,0.000885,0,0
0:2:39.903,637.159,36.0527,0,0.000885,0,0
0:2:40.694,640.855,36.2664,0,0.000885,0,0
0:2:41.491,644.378,36.4664,0,0.000885,0,0
0:2:42.292,648.253,36.6801,0,0.000885,0,0
0:2:43.100,651.833,36.887,0,0.000885,0,0
0:2:43.900,654.769,37.0524,0,0.000885,0,0
0:2:44.701,658.995,37.2937,0,0.000885,0,0
0:2:45.497,662.576,37.4937,0,0.000885,0,0
0:2:46.302,666.037,37.6867,0,0.000885,0,0
0:2:47.094,669.15,37.866,0,0.000885,0,0
0:2:47.906,673.67,38.1211,0,0.000885,0,0
0:2:48.712,676.192,38.2659,0,0.000885,0,0
0:2:49.503,679.595,38.459,0,0.000885,0,0
0:2:50.309,683.469,38.6796,0,0.000885,0,0
0:2:51.103,687.112,38.8795,0,0.000885,0,0
0:2:51.897,690.222,39.0588,0,0.000885,0,0
0:2:52.704,694.332,39.2932,0,0.000885,0,0
0:2:53.509,697.441,39.4656,0,0.000885,0,0
0:2:54.306,701.431,39.6931,0,0.000885,0,0
0:2:55.096,704.896,39.8862,0,0.000885,0,0
0:2:55.893,707.948,40.0585,0,0.000885,0,0
0:2:56.684,712.058,40.293,0,0.000885,0,0
0:2:57.492,715.697,40.4998,0,0.000885,0,0
0:2:58.297,718.281,40.6446,0,0.000885,0,0
0:2:59.092,721.92,40.8514,0,0.000885,0,0
0:2:59.895,726.203,41.0928,0,0.000885,0,0
0:3:0.689,729.726,41.2927,0,0.000885,0,0
0:3:1.485,732.426,41.4444,0,0.000885,0,0
0:3:2.293,736.594,41.6857,0,0.000885,0,0
0:3:3.104,740.527,41.9063,0,0.000885,0,0
0:3:3.901,743.462,42.0718,0,0.000885,0,0
0:3:4.698,746.692,42.2511,0,0.000885,0,0
0:3:5.490,751.153,42.5062,0,0.000885,0,0
0:3:6.283,753.733,42.651,0,0.000885,0,0
0:3:7.079,757.199,42.8509,0,0.000885,0,0
0:3:7.887,760.486,43.0371,0,0.000885,0,0
0:3:8.692,764.476,43.2577,0,0.000885,0,0
0:3:9.505,768.114,43.4645,0,0.000885,0,0
0:3:10.304,771.58,43.6645,0,0.000885,0,0
0:3:11.093,775.512,43.8851,0,0.000885,0,0
0:3:11.899,778.857,44.0713,0,0.000885,0,0
0:3:12.711,781.793,44.2437,0,0.000885,0,0
0:3:13.512,785.903,44.4712,0,0.000885,0,0
0:3:14.309,789.777,44.6918,0,0.000885,0,0
0:3:15.099,793.065,44.878,0,0.000885,0,0
0:3:15.894,796.467,45.071,0,0.000885,0,0
0:3:16.694,799.577,45.2503,0,0.000885,0,0
0:3:17.504,803.278,45.4571,0,0.000885,0,0
0:3:18.308,806.503,45.6364,0,0.000885,0,0
0:3:19.106,809.968,45.8363,0,0.000885,0,0
0:3:19.896,813.958,46.0639,0,0.000885,0,0
0:3:20.711,817.129,46.2431,0,0.000885,0,0
0:3:21.508,820.595,46.4362,0,0.000885,0,0
0:3:22.308,823.997,46.6292,0,0.000885,0,0
0:3:23.117,826.813,46.7878,0,0.000885,0,0
0:3:23.914,828.575,46.8843,0,0.000885,0,0
0:3:24.711,828.868,46.905,0,0.000885,0,0
0:3:25.497,816.484,46.2018,0,0.000885,0,0
0:3:26.300,669.502,37.8867,0,0.000885,0,0