File: DataFile2021-06-30_061238.csv
Test ID:,Date Tested:,Time:,Test Type:,Diameter Avg. (mm):,Cyl. Corr. Factor:,Height (mm):,Age (days):,Weight (kN):,Break Type:,Ramp Rate (MPa/s):,Load at Break (kN):,Stress at Break (MPa):
12,6/30/2021,06:12,Cylinder,100,1,200,0,3.6,3,0.24,735.42,93.64
Sample Time,Load (kN),Stress (MPa),Long. Strain,Trans. Strain,Chan1 Deflection (mm),Chan2 Deflection (mm)
0:0:18.921,6.39209,0.813581,0,0.000885,0,0
0:0:20.512,9.44357,1.19969,0,0.000885,0,0
0:0:22.097,10.0886,1.28242,0,0.000885,0,0
0:0:23.689,13.9585,1.77885,0,0.000885,0,0
0:0:25.297,18.1221,2.30974,0,0.000885,0,0
0:0:26.895,21.1157,2.68896,0,0.000885,0,0
0:0:28.485,23.9314,3.04748,0,0.000885,0,0
0:0:30.091,27.45,3.49564,0,0.000885,0,0
0:0:31.690,30.5548,3.88864,0,0.000885,0,0
0:0:33.282,33.2549,4.23338,0,0.000885,0,0
0:0:34.892,36.7734,4.68154,0,0.000885,0,0
0:0:36.492,39.7671,5.06075,0,0.000885,0,0
0:0:38.085,42.8141,5.45375,0,0.000885,0,0
0:0:39.687,45.8656,5.83986,0,0.000885,0,0
0:0:41.292,48.9126,6.22597,0,0.000885,0,0
0:0:42.884,52.2577,6.65344,0,0.000885,0,0
0:0:44.478,55.1891,7.02576,0,0.000885,0,0
0:0:46.088,58.8277,7.48771,0,0.000885,0,0
0:0:47.678,62.1105,7.90829,0,0.000885,0,0
0:0:49.273,64.8684,8.25992,0,0.000885,0,0
0:0:50.888,67.742,8.62534,0,0.000885,0,0
0:0:52.483,70.8513,9.01834,0,0.000885,0,0
0:0:54.072,74.312,9.45961,0,0.000885,0,0
0:0:55.692,77.359,9.85261,0,0.000885,0,0
0:0:57.285,80.5262,10.2525,0,0.000885,0,0
0:0:58.878,83.5198,10.6317,0,0.000885,0,0
0:1:0.497,87.2118,11.1075,0,0.000885,0,0
0:1:2.090,89.8541,11.4384,0,0.000885,0,0
0:1:3.680,93.1947,11.8659,0,0.000885,0,0
0:1:5.289,95.8369,12.2037,0,0.000885,0,0
0:1:6.886,99.529,12.6726,0,0.000885,0,0
0:1:8.478,102.051,12.9966,0,0.000885,0,0
0:1:10.086,105.69,13.4586,0,0.000885,0,0
0:1:11.688,108.328,13.7895,0,0.000885,0,0
0:1:13.280,112.197,14.2859,0,0.000885,0,0
0:1:14.882,115.129,14.6583,0,0.000885,0,0
0:1:16.484,118.416,15.0788,0,0.000885,0,0
0:1:18.074,120.76,15.3753,0,0.000885,0,0
0:1:19.681,124.63,15.8717,0,0.000885,0,0
0:1:21.289,127.74,16.2647,0,0.000885,0,0
0:1:22.880,130.555,16.6233,0,0.000885,0,0
0:1:24.491,134.194,17.0852,0,0.000885,0,0
0:1:26.097,136.774,17.4162,0,0.000885,0,0
0:1:27.690,140.35,17.8712,0,0.000885,0,0
0:1:29.284,143.46,18.2642,0,0.000885,0,0
0:1:30.896,146.217,18.6158,0,0.000885,0,0
0:1:32.485,150.439,19.1536,0,0.000885,0,0
0:1:34.078,153.077,19.4915,0,0.000885,0,0
0:1:35.691,155.835,19.8431,0,0.000885,0,0
0:1:37.284,159.18,20.2637,0,0.000885,0,0
0:1:38.884,162.227,20.6567,0,0.000885,0,0
0:1:40.496,165.452,21.0635,0,0.000885,0,0
0:1:42.094,168.209,21.4151,0,0.000885,0,0
0:1:43.686,171.848,21.8771,0,0.000885,0,0
0:1:45.296,174.722,22.2494,0,0.000885,0,0
0:1:46.889,177.947,22.6562,0,0.000885,0,0
0:1:48.479,180.762,23.0147,0,0.000885,0,0
0:1:50.097,183.636,23.3801,0,0.000885,0,0
0:1:51.698,187.328,23.849,0,0.000885,0,0
0:1:53.288,190.789,24.2902,0,0.000885,0,0
0:1:54.886,193.431,24.6281,0,0.000885,0,0
0:1:56.481,197.301,25.1176,0,0.000885,0,0
0:1:58.081,199.703,25.4279,0,0.000885,0,0
0:1:59.680,203.048,25.8553,0,0.000885,0,0
0:2:1.269,206.215,26.2552,0,0.000885,0,0
0:2:2.887,209.618,26.6896,0,0.000885,0,0
0:2:4.472,212.082,26.9999,0,0.000885,0,0
0:2:6.080,215.832,27.4825,0,0.000885,0,0
0:2:7.679,218.417,27.8066,0,0.000885,0,0
0:2:9.280,222.402,28.3168,0,0.000885,0,0
0:2:10.883,224.631,28.5995,0,0.000885,0,0
0:2:12.483,228.621,29.1097,0,0.000885,0,0
0:2:14.082,231.374,29.4613,0,0.000885,0,0
0:2:15.688,233.896,29.7785,0,0.000885,0,0
0:2:17.270,237.241,30.2059,0,0.000885,0,0
0:2:18.880,241.289,30.723,0,0.000885,0,0
0:2:20.484,244.043,31.0747,0,0.000885,0,0
0:2:22.086,247.152,31.4677,0,0.000885,0,0
0:2:23.687,250.204,31.8538,0,0.000885,0,0
0:2:25.284,252.548,32.1571,0,0.000885,0,0
0:2:26.881,256.831,32.7018,0,0.000885,0,0
0:2:28.474,259.176,32.9983,0,0.000885,0,0
0:2:30.081,262.227,33.3844,0,0.000885,0,0
0:2:31.676,265.274,33.7774,0,0.000885,0,0
0:2:33.277,268.855,34.2325,0,0.000885,0,0
0:2:34.876,272.547,34.7013,0,0.000885,0,0
0:2:36.469,275.247,35.0461,0,0.000885,0,0
0:2:38.086,278.588,35.4735,0,0.000885,0,0
0:2:39.684,281.581,35.8527,0,0.000885,0,0
0:2:41.276,284.864,36.2733,0,0.000885,0,0
0:2:42.886,288.031,36.6732,0,0.000885,0,0
0:2:44.474,291.256,37.0869,0,0.000885,0,0
0:2:46.075,293.778,37.4041,0,0.000885,0,0
0:2:47.680,296.83,37.7902,0,0.000885,0,0
0:2:49.284,300.526,38.2659,0,0.000885,0,0
0:2:50.888,303.636,38.6589,0,0.000885,0,0
0:2:52.487,306.918,39.0795,0,0.000885,0,0
0:2:54.073,309.441,39.3966,0,0.000885,0,0
0:2:55.679,312.43,39.7827,0,0.000885,0,0
0:2:57.279,316.535,40.2999,0,0.000885,0,0
0:2:58.878,319.471,40.6791,0,0.000885,0,0
0:3:0.476,322.638,41.079,0,0.000885,0,0
0:3:2.080,325.806,41.4858,0,0.000885,0,0
0:3:3.677,328.679,41.8512,0,0.000885,0,0
0:3:5.286,331.962,42.2649,0,0.000885,0,0
0:3:6.878,335.307,42.6923,0,0.000885,0,0
0:3:8.479,338.648,43.1198,0,0.000885,0,0
0:3:10.097,340.76,43.3887,0,0.000885,0,0
0:3:11.682,344.515,43.8644,0,0.000885,0,0
0:3:13.292,347.153,44.2023,0,0.000885,0,0
0:3:14.889,349.91,44.5539,0,0.000885,0,0
0:3:16.480,353.015,44.9469,0,0.000885,0,0
0:3:18.058,356.827,45.4296,0,0.000885,0,0
0:3:19.643,360.115,45.8501,0,0.000885,0,0
0:3:21.240,362.93,46.2087,0,0.000885,0,0
0:3:22.821,366.098,46.6155,0,0.000885,0,0
0:3:24.408,368.62,46.9326,0,0.000885,0,0
0:3:26.005,372.374,47.4152,0,0.000885,0,0
0:3:27.588,376.186,47.8979,0,0.000885,0,0
0:3:29.189,378.882,48.2426,0,0.000885,0,0
0:3:30.789,382.578,48.7115,0,0.000885,0,0
0:3:32.383,384.865,49.001,0,0.000885,0,0
0:3:33.984,387.565,49.3458,0,0.000885,0,0
0:3:35.593,391.666,49.8698,0,0.000885,0,0
0:3:37.194,394.775,50.2628,0,0.000885,0,0
0:3:38.780,397.885,50.6627,0,0.000885,0,0
0:3:40.381,400.758,51.0281,0,0.000885,0,0
0:3:41.991,403.632,51.3935,0,0.000885,0,0
0:3:43.577,407.328,51.8624,0,0.000885,0,0
0:3:45.184,410.731,52.2967,0,0.000885,0,0
0:3:46.772,412.96,52.5794,0,0.000885,0,0
0:3:48.394,416.064,52.9724,0,0.000885,0,0
0:3:49.982,419.761,53.4482,0,0.000885,0,0
0:3:51.582,422.87,53.8412,0,0.000885,0,0
0:3:53.180,425.566,54.1859,0,0.000885,0,0
0:3:54.785,428.502,54.5582,0,0.000885,0,0
0:3:56.390,431.491,54.9374,0,0.000885,0,0
0:3:57.991,435.423,55.4407,0,0.000885,0,0
0:3:59.599,438.297,55.8062,0,0.000885,0,0
0:4:1.196,441.931,56.2681,0,0.000885,0,0
0:4:2.796,445.156,56.6818,0,0.000885,0,0
0:4:4.372,447.678,56.999,0,0.000885,0,0
0:4:5.974,450.729,57.392,0,0.000885,0,0
0:4:7.591,454.306,57.847,0,0.000885,0,0
0:4:9.185,456.592,58.1366,0,0.000885,0,0
0:4:10.791,460.289,58.6054,0,0.000885,0,0
0:4:12.398,463.634,59.0329,0,0.000885,0,0
0:4:13.985,467.152,59.4811,0,0.000885,0,0
0:4:15.592,470.141,59.8603,0,0.000885,0,0
0:4:17.188,473.193,60.2464,0,0.000885,0,0
0:4:18.768,475.421,60.5291,0,0.000885,0,0
0:4:20.365,478.704,60.9497,0,0.000885,0,0
0:4:21.948,481.929,61.3633,0,0.000885,0,0
0:4:23.525,484.571,61.6943,0,0.000885,0,0
0:4:25.129,488.677,62.2183,0,0.000885,0,0
0:4:26.709,491.079,62.5286,0,0.000885,0,0
0:4:28.288,495.185,63.0457,0,0.000885,0,0
0:4:29.895,497.182,63.3008,0,0.000885,0,0
0:4:31.482,501.11,63.8041,0,0.000885,0,0
0:4:33.061,504.922,64.2867,0,0.000885,0,0
0:4:34.653,507.502,64.6177,0,0.000885,0,0
0:4:36.248,510.554,65.0038,0,0.000885,0,0
0:4:37.827,512.898,65.3071,0,0.000885,0,0
0:4:39.420,516.301,65.7346,0,0.000885,0,0
0:4:41.009,519.232,66.1138,0,0.000885,0,0
0:4:42.597,522.751,66.562,0,0.000885,0,0
0:4:44.191,526.038,66.9757,0,0.000885,0,0
0:4:45.786,529.378,67.4031,0,0.000885,0,0
0:4:47.369,532.194,67.7617,0,0.000885,0,0
0:4:48.946,534.832,68.0995,0,0.000885,0,0
0:4:50.554,538.88,68.6097,0,0.000885,0,0
0:4:52.136,541.638,68.9614,0,0.000885,0,0
0:4:53.717,545.214,69.4164,0,0.000885,0,0
0:4:55.323,547.5,69.7129,0,0.000885,0,0
0:4:56.902,550.552,70.099,0,0.000885,0,0
0:4:58.479,553.777,70.5058,0,0.000885,0,0
0:5:0.091,557.002,70.9195,0,0.000885,0,0
0:5:1.694,560.405,71.3538,0,0.000885,0,0
0:5:3.287,563.514,71.7468,0,0.000885,0,0
0:5:4.908,566.445,72.1192,0,0.000885,0,0
0:5:6.504,570.084,72.588,0,0.000885,0,0
0:5:8.092,573.251,72.9879,0,0.000885,0,0
0:5:9.688,576.476,73.4016,0,0.000885,0,0
0:5:11.278,579.172,73.7394,0,0.000885,0,0
0:5:12.859,581.988,74.098,0,0.000885,0,0
0:5:14.452,586.151,74.6289,0,0.000885,0,0
0:5:16.050,588.793,74.9667,0,0.000885,0,0
0:5:17.640,591.436,75.3045,0,0.000885,0,0
0:5:19.240,594.309,75.67,0,0.000885,0,0
0:5:20.841,598.068,76.1457,0,0.000885,0,0
0:5:22.430,600.71,76.4835,0,0.000885,0,0
0:5:24.029,604.171,76.9248,0,0.000885,0,0
0:5:25.634,607.636,77.3661,0,0.000885,0,0
0:5:27.223,610.278,77.7039,0,0.000885,0,0
0:5:28.810,613.859,78.159,0,0.000885,0,0
0:5:30.424,616.795,78.5313,0,0.000885,0,0
0:5:32.012,620.256,78.9725,0,0.000885,0,0
0:5:33.607,622.604,79.269,0,0.000885,0,0
0:5:35.217,626.007,79.7034,0,0.000885,0,0
0:5:36.806,629.588,80.1584,0,0.000885,0,0
0:5:38.405,632.524,80.5377,0,0.000885,0,0
0:5:40.017,635.753,80.9445,0,0.000885,0,0
0:5:41.605,638.862,81.3443,0,0.000885,0,0
0:5:43.192,641.683,81.7029,0,0.000885,0,0
0:5:44.797,645.557,82.1924,0,0.000885,0,0
0:5:46.391,648.137,82.5233,0,0.000885,0,0
0:5:47.995,651.544,82.9577,0,0.000885,0,0
0:5:49.595,653.951,83.2611,0,0.000885,0,0
0:5:51.189,657.469,83.7092,0,0.000885,0,0
0:5:52.776,660.935,84.1505,0,0.000885,0,0
0:5:54.383,663.341,84.4608,0,0.000885,0,0
0:5:55.979,667.509,84.9917,0,0.000885,0,0
0:5:57.565,670.093,85.3157,0,0.000885,0,0
0:5:59.161,673.087,85.7018,0,0.000885,0,0
0:6:0.761,675.903,86.0604,0,0.000885,0,0
0:6:2.348,679.662,86.5361,0,0.000885,0,0
0:6:3.940,683.007,86.9636,0,0.000885,0,0
0:6:5.547,685.587,87.2945,0,0.000885,0,0
0:6:7.136,688.349,87.6462,0,0.000885,0,0
0:6:8.726,691.4,88.0323,0,0.000885,0,0
0:6:10.338,694.861,88.4735,0,0.000885,0,0
0:6:11.924,698.442,88.9286,0,0.000885,0,0
0:6:13.511,701.142,89.2733,0,0.000885,0,0
0:6:15.117,703.962,89.6318,0,0.000885,0,0
0:6:16.705,707.014,90.018,0,0.000885,0,0
0:6:18.311,709.598,90.3489,0,0.000885,0,0
0:6:19.922,712.65,90.735,0,0.000885,0,0
0:6:21.512,717.169,91.3142,0,0.000885,0,0
0:6:23.098,720.514,91.7416,0,0.000885,0,0
0:6:24.705,723.686,92.1415,0,0.000885,0,0
0:6:26.293,726.323,92.4794,0,0.000885,0,0
0:6:27.896,728.85,92.7965,0,0.000885,0,0
0:6:29.502,732.96,93.3205,0,0.000885,0,0
0:6:31.106,731.844,93.1826,0,0.000885,0,0
0:6:32.700,730.318,92.9896,0,0.000885,0,0
0:6:34.082,573.073,72.9672,0,0.000885,0,0