File: DataFile2021-06-09_072844.csv
Test ID:,Date Tested:,Time:,Test Type:,Diameter Avg. (mm):,Cyl. Corr. Factor:,Height (mm):,Age (days):,Weight (kN):,Break Type:,Ramp Rate (MPa/s):,Load at Break (kN):,Stress at Break (MPa):
12,6/9/2021,07:28,Cylinder,100,1,200,0,3.6,3,0.25,675.49,86.01
Sample Time,Load (kN),Stress (MPa),Long. Strain,Trans. Strain,Chan1 Deflection (mm),Chan2 Deflection (mm)
0:0:11.841,6.86361,0.875634,0,0.000885,0,0
0:0:13.330,8.74076,1.11006,0,0.000885,0,0
0:0:14.816,9.73716,1.24106,0,0.000885,0,0
0:0:16.318,13.1979,1.68232,0,0.000885,0,0
0:0:17.822,16.6586,2.12359,0,0.000885,0,0
0:0:19.328,19.412,2.47522,0,0.000885,0,0
0:0:20.819,23.0507,2.93717,0,0.000885,0,0
0:0:22.323,26.4536,3.36464,0,0.000885,0,0
0:0:23.839,28.562,3.63354,0,0.000885,0,0
0:0:25.328,31.6135,4.02654,0,0.000885,0,0
0:0:26.817,34.8385,4.43333,0,0.000885,0,0
0:0:28.334,38.0634,4.84701,0,0.000885,0,0
0:0:29.824,40.6434,5.17796,0,0.000885,0,0
0:0:31.317,43.9306,5.59165,0,0.000885,0,0
0:0:32.839,46.3905,5.90881,0,0.000885,0,0
0:0:34.337,49.5576,6.3087,0,0.000885,0,0
0:0:35.826,52.0798,6.63276,0,0.000885,0,0
0:0:37.325,54.8377,6.98439,0,0.000885,0,0
0:0:38.839,58.8277,7.48771,0,0.000885,0,0
0:0:40.331,61.2298,7.79797,0,0.000885,0,0
0:0:41.822,64.1033,8.16339,0,0.000885,0,0
0:0:43.335,66.6255,8.48055,0,0.000885,0,0
0:0:44.836,70.0284,8.91492,0,0.000885,0,0
0:0:46.329,73.3111,9.3355,0,0.000885,0,0
0:0:47.832,75.3662,9.5975,0,0.000885,0,0
0:0:49.340,78.8848,10.0457,0,0.000885,0,0
0:0:50.833,81.4647,10.3697,0,0.000885,0,0
0:0:52.325,84.2805,10.7282,0,0.000885,0,0
0:0:53.843,88.0348,11.2109,0,0.000885,0,0
0:0:55.336,90.4412,11.5142,0,0.000885,0,0
0:0:56.828,93.724,11.9348,0,0.000885,0,0
0:0:58.338,96.4819,12.2865,0,0.000885,0,0
0:0:59.835,99.6491,12.6864,0,0.000885,0,0
0:1:1.325,102.287,13.0242,0,0.000885,0,0
0:1:2.837,105.748,13.4655,0,0.000885,0,0
0:1:4.332,108.385,13.8033,0,0.000885,0,0
0:1:5.825,111.143,14.148,0,0.000885,0,0
0:1:7.324,114.253,14.5479,0,0.000885,0,0
0:1:8.836,116.89,14.8858,0,0.000885,0,0
0:1:10.330,119.119,15.1685,0,0.000885,0,0
0:1:11.822,122.873,15.6442,0,0.000885,0,0
0:1:13.342,125.805,16.0165,0,0.000885,0,0
0:1:14.842,128.442,16.3544,0,0.000885,0,0
0:1:16.332,131.845,16.7887,0,0.000885,0,0
0:1:17.832,134.194,17.0852,0,0.000885,0,0
0:1:19.339,137.944,17.5609,0,0.000885,0,0
0:1:20.830,140.235,17.8574,0,0.000885,0,0
0:1:22.330,143.695,18.2987,0,0.000885,0,0
0:1:23.838,146.275,18.6227,0,0.000885,0,0
0:1:25.333,149.794,19.0709,0,0.000885,0,0
0:1:26.823,152.552,19.4225,0,0.000885,0,0
0:1:28.343,155.541,19.8017,0,0.000885,0,0
0:1:29.844,158.65,20.2016,0,0.000885,0,0
0:1:31.335,161.346,20.5464,0,0.000885,0,0
0:1:32.836,164.397,20.9325,0,0.000885,0,0
0:1:34.345,167.213,21.291,0,0.000885,0,0
0:1:35.838,169.615,21.5944,0,0.000885,0,0
0:1:37.338,173.018,22.0287,0,0.000885,0,0
0:1:38.842,175.949,22.4011,0,0.000885,0,0
0:1:40.336,178.707,22.7527,0,0.000885,0,0
0:1:41.826,182.168,23.194,0,0.000885,0,0
0:1:43.341,184.748,23.5249,0,0.000885,0,0
0:1:44.837,187.622,23.8903,0,0.000885,0,0
0:1:46.331,190.322,24.2351,0,0.000885,0,0
0:1:47.837,193.489,24.635,0,0.000885,0,0
0:1:49.334,196.949,25.0762,0,0.000885,0,0
0:1:50.823,199.294,25.3727,0,0.000885,0,0
0:1:52.320,202.225,25.745,0,0.000885,0,0
0:1:53.829,205.334,26.1449,0,0.000885,0,0
0:1:55.329,208.092,26.4966,0,0.000885,0,0
0:1:56.829,211.024,26.8689,0,0.000885,0,0
0:1:58.335,213.604,27.1998,0,0.000885,0,0
0:1:59.826,216.891,27.6135,0,0.000885,0,0
0:2:1.329,220,28.0134,0,0.000885,0,0
0:2:2.832,223.283,28.4271,0,0.000885,0,0
0:2:4.326,226.334,28.8201,0,0.000885,0,0
0:2:5.829,229.675,29.2407,0,0.000885,0,0
0:2:7.328,231.61,29.4889,0,0.000885,0,0
0:2:8.834,235.129,29.937,0,0.000885,0,0
0:2:10.333,237.357,30.2197,0,0.000885,0,0
0:2:11.832,240.996,30.6817,0,0.000885,0,0
0:2:13.339,243.576,31.0126,0,0.000885,0,0
0:2:14.827,246.214,31.3505,0,0.000885,0,0
0:2:16.335,247.388,31.4953,0,0.000885,0,0
0:2:17.833,251.961,32.0813,0,0.000885,0,0
0:2:19.335,256.186,32.6191,0,0.000885,0,0
0:2:20.837,258.709,32.9363,0,0.000885,0,0
0:2:22.329,261.876,33.343,0,0.000885,0,0
0:2:23.834,264.691,33.7016,0,0.000885,0,0
0:2:25.322,266.8,33.9705,0,0.000885,0,0
0:2:26.836,269.794,34.3497,0,0.000885,0,0
0:2:28.333,272.547,34.7013,0,0.000885,0,0
0:2:29.832,274.896,34.9978,0,0.000885,0,0
0:2:31.331,278.766,35.4942,0,0.000885,0,0
0:2:32.839,282.987,36.032,0,0.000885,0,0
0:2:34.329,285.451,36.3423,0,0.000885,0,0
0:2:35.830,287.564,36.6112,0,0.000885,0,0
0:2:37.336,290.731,37.018,0,0.000885,0,0
0:2:38.838,293.196,37.3282,0,0.000885,0,0
0:2:40.329,296.656,37.7695,0,0.000885,0,0
0:2:41.831,300.055,38.2039,0,0.000885,0,0
0:2:43.337,302.341,38.4934,0,0.000885,0,0
0:2:44.835,305.744,38.9278,0,0.000885,0,0
0:2:46.333,308.969,39.3415,0,0.000885,0,0
0:2:47.842,311.611,39.6724,0,0.000885,0,0
0:2:49.331,315.597,40.1826,0,0.000885,0,0
0:2:50.832,319.471,40.6791,0,0.000885,0,0
0:2:52.338,320.405,40.7963,0,0.000885,0,0
0:2:53.839,323.928,41.2444,0,0.000885,0,0
0:2:55.338,325.334,41.4237,0,0.000885,0,0
0:2:56.832,329.969,42.0098,0,0.000885,0,0
0:2:58.340,333.31,42.4372,0,0.000885,0,0
0:2:59.837,335.365,42.6992,0,0.000885,0,0
0:3:1.336,337.709,42.9957,0,0.000885,0,0
0:3:2.838,340.703,43.3818,0,0.000885,0,0
0:3:4.331,343.514,43.7403,0,0.000885,0,0
0:3:5.827,346.975,44.1816,0,0.000885,0,0
0:3:7.338,350.026,44.5677,0,0.000885,0,0
0:3:8.833,352.197,44.8435,0,0.000885,0,0
0:3:10.335,355.893,45.3123,0,0.000885,0,0
0:3:11.834,358.06,45.5881,0,0.000885,0,0
0:3:13.338,361.347,46.0087,0,0.000885,0,0
0:3:14.839,364.687,46.4362,0,0.000885,0,0
0:3:16.329,367.797,46.8292,0,0.000885,0,0
0:3:17.846,370.083,47.1188,0,0.000885,0,0
0:3:19.337,373.313,47.5325,0,0.000885,0,0
0:3:20.840,376.186,47.8979,0,0.000885,0,0
0:3:22.334,378.766,48.2288,0,0.000885,0,0
0:3:23.838,382.342,48.6839,0,0.000885,0,0
0:3:25.340,384.865,49.001,0,0.000885,0,0
0:3:26.837,388.267,49.4354,0,0.000885,0,0
0:3:28.337,391.315,49.8215,0,0.000885,0,0
0:3:29.835,394.072,50.1731,0,0.000885,0,0
0:3:31.334,396.71,50.511,0,0.000885,0,0
0:3:32.845,399.646,50.8833,0,0.000885,0,0
0:3:34.341,402.813,51.2901,0,0.000885,0,0
0:3:35.829,405.451,51.621,0,0.000885,0,0
0:3:37.340,408.502,52.014,0,0.000885,0,0
0:3:38.836,411.376,52.3795,0,0.000885,0,0
0:3:40.338,414.601,52.7863,0,0.000885,0,0
0:3:41.839,417.648,53.1793,0,0.000885,0,0
0:3:43.341,420.348,53.5171,0,0.000885,0,0
0:3:44.824,422.755,53.8274,0,0.000885,0,0
0:3:46.336,426.504,54.3031,0,0.000885,0,0
0:3:47.835,429.32,54.6616,0,0.000885,0,0
0:3:49.341,432.256,55.034,0,0.000885,0,0
0:3:50.841,435.245,55.4201,0,0.000885,0,0
0:3:52.339,438.119,55.7855,0,0.000885,0,0
0:3:53.833,440.467,56.082,0,0.000885,0,0
0:3:55.344,443.986,56.5301,0,0.000885,0,0
0:3:56.836,446.917,56.9024,0,0.000885,0,0
0:3:58.341,450.2,57.323,0,0.000885,0,0
0:3:59.833,452.9,57.6677,0,0.000885,0,0
0:4:1.337,455.654,58.0125,0,0.000885,0,0
0:4:2.837,458.705,58.4055,0,0.000885,0,0
0:4:4.331,461.872,58.8054,0,0.000885,0,0
0:4:5.831,464.394,59.1294,0,0.000885,0,0
0:4:7.344,467.446,59.5155,0,0.000885,0,0
0:4:8.849,470.141,59.8603,0,0.000885,0,0
0:4:10.338,472.957,60.2188,0,0.000885,0,0
0:4:11.838,476.302,60.6463,0,0.000885,0,0
0:4:13.344,479.701,61.0807,0,0.000885,0,0
0:4:14.843,482.223,61.3978,0,0.000885,0,0
0:4:16.334,484.981,61.7494,0,0.000885,0,0
0:4:17.852,488.206,62.1631,0,0.000885,0,0
0:4:19.346,490.786,62.4872,0,0.000885,0,0
0:4:20.834,493.601,62.8457,0,0.000885,0,0
0:4:22.335,496.889,63.2663,0,0.000885,0,0
0:4:23.840,499.936,63.6524,0,0.000885,0,0
0:4:25.340,502.809,64.0178,0,0.000885,0,0
0:4:26.827,505.509,64.3626,0,0.000885,0,0
0:4:28.331,508.676,64.7693,0,0.000885,0,0
0:4:29.831,511.608,65.1417,0,0.000885,0,0
0:4:31.344,515.011,65.576,0,0.000885,0,0
0:4:32.850,517.413,65.8794,0,0.000885,0,0
0:4:34.344,520.349,66.2517,0,0.000885,0,0
0:4:35.832,523.516,66.6585,0,0.000885,0,0
0:4:37.346,526.798,67.0722,0,0.000885,0,0
0:4:38.849,529.672,67.4376,0,0.000885,0,0
0:4:40.337,532.136,67.7548,0,0.000885,0,0
0:4:41.837,534.832,68.0995,0,0.000885,0,0
0:4:43.346,539.058,68.6373,0,0.000885,0,0
0:4:44.845,541.166,68.9062,0,0.000885,0,0
0:4:46.334,544.218,69.2923,0,0.000885,0,0
0:4:47.835,547.211,69.6715,0,0.000885,0,0
0:4:49.343,549.849,70.0094,0,0.000885,0,0
0:4:50.844,552.723,70.3748,0,0.000885,0,0
0:4:52.347,555.774,70.7609,0,0.000885,0,0
0:4:53.854,559.115,71.1884,0,0.000885,0,0
0:4:55.346,561.873,71.54,0,0.000885,0,0
0:4:56.845,564.395,71.8641,0,0.000885,0,0
0:4:58.344,567.504,72.2571,0,0.000885,0,0
0:4:59.842,570.2,72.6018,0,0.000885,0,0
0:5:1.350,573.603,73.0362,0,0.000885,0,0
0:5:2.851,576.125,73.3533,0,0.000885,0,0
0:5:4.346,579.35,73.767,0,0.000885,0,0
0:5:5.833,581.756,74.0704,0,0.000885,0,0
0:5:7.350,585.39,74.5323,0,0.000885,0,0
0:5:8.852,588.322,74.9046,0,0.000885,0,0
0:5:10.335,591.845,75.3528,0,0.000885,0,0
0:5:11.845,594.367,75.6769,0,0.000885,0,0
0:5:13.352,597.183,76.0354,0,0.000885,0,0
0:5:14.847,599.945,76.387,0,0.000885,0,0
0:5:16.341,603.054,76.78,0,0.000885,0,0
0:5:17.859,605.99,77.1592,0,0.000885,0,0
0:5:19.362,608.69,77.504,0,0.000885,0,0
0:5:20.847,612.213,77.9521,0,0.000885,0,0
0:5:22.351,614.206,78.2003,0,0.000885,0,0
0:5:23.855,616.319,78.4692,0,0.000885,0,0
0:5:25.342,620.607,79.0208,0,0.000885,0,0
0:5:26.838,620.723,79.0346,0,0.000885,0,0
0:5:28.347,626.181,79.731,0,0.000885,0,0
0:5:29.839,627.181,79.8551,0,0.000885,0,0
0:5:31.337,633.342,80.6411,0,0.000885,0,0
0:5:32.843,636.807,81.0823,0,0.000885,0,0
0:5:34.348,640.037,81.4891,0,0.000885,0,0
0:5:35.842,642.737,81.8339,0,0.000885,0,0
0:5:37.350,644.205,82.02,0,0.000885,0,0
0:5:38.852,646.549,82.3234,0,0.000885,0,0
0:5:40.349,649.605,82.7095,0,0.000885,0,0
0:5:41.844,652.363,83.0611,0,0.000885,0,0
0:5:43.355,655.708,83.4886,0,0.000885,0,0
0:5:44.847,658.702,83.8678,0,0.000885,0,0
0:5:46.342,660.992,84.1574,0,0.000885,0,0
0:5:47.855,664.28,84.578,0,0.000885,0,0
0:5:49.353,663.75,84.509,0,0.000885,0,0
0:5:50.850,667.976,85.0468,0,0.000885,0,0
0:5:52.336,670.383,85.3571,0,0.000885,0,0
0:5:53.852,674.786,85.9156,0,0.000885,0,0
0:5:55.357,665.218,84.6952,0,0.000885,0,0
0:5:56.849,643.733,81.9649,0,0.000885,0,0
0:5:57.723,588.5,74.9322,0,0.000885,0,0