File: DataFile2021-06-08_041450.csv
Test ID:,Date Tested:,Time:,Test Type:,Diameter Avg. (mm):,Cyl. Corr. Factor:,Height (mm):,Age (days):,Weight (kN):,Break Type:,Ramp Rate (MPa/s):,Load at Break (kN):,Stress at Break (MPa):
12,6/8/2021,04:14,Cylinder,100,1,200,0,3.6,3,0.25,944.57,120.27
Sample Time,Load (kN),Stress (MPa),Long. Strain,Trans. Strain,Chan1 Deflection (mm),Chan2 Deflection (mm)
0:0:14.694,6.04068,0.772213,0,0.000885,0,0
0:0:16.777,10.0307,1.27553,0,0.000885,0,0
0:0:18.857,12.0814,1.53753,0,0.000885,0,0
0:0:20.960,16.8899,2.15116,0,0.000885,0,0
0:0:23.059,21.2314,2.70274,0,0.000885,0,0
0:0:25.151,25.3371,3.22675,0,0.000885,0,0
0:0:27.268,30.7906,3.92312,0,0.000885,0,0
0:0:29.356,33.7842,4.30233,0,0.000885,0,0
0:0:31.468,38.0634,4.84701,0,0.000885,0,0
0:0:33.556,42.0535,5.35723,0,0.000885,0,0
0:0:35.661,46.1592,5.87433,0,0.000885,0,0
0:0:37.761,51.0255,6.49486,0,0.000885,0,0
0:0:39.849,54.3706,6.92234,0,0.000885,0,0
0:0:41.964,58.8277,7.48771,0,0.000885,0,0
0:0:44.054,62.9913,8.0186,0,0.000885,0,0
0:0:46.162,66.7456,8.50124,0,0.000885,0,0
0:0:48.258,70.6733,8.99766,0,0.000885,0,0
0:0:50.350,75.602,9.62508,0,0.000885,0,0
0:0:52.461,79.1205,10.0732,0,0.000885,0,0
0:0:54.549,83.1061,10.5835,0,0.000885,0,0
0:0:56.660,87.3319,11.1212,0,0.000885,0,0
0:0:58.749,92.434,11.7694,0,0.000885,0,0
0:1:0.866,96.1883,12.2451,0,0.000885,0,0
0:1:2.963,100,12.7346,0,0.000885,0,0
0:1:5.052,103.87,13.2241,0,0.000885,0,0
0:1:7.163,107.976,13.7481,0,0.000885,0,0
0:1:9.253,112.082,14.2721,0,0.000885,0,0
0:1:11.365,116.833,14.8789,0,0.000885,0,0
0:1:13.455,120.293,15.3133,0,0.000885,0,0
0:1:15.557,124.63,15.8717,0,0.000885,0,0
0:1:17.655,129.092,16.4371,0,0.000885,0,0
0:1:19.751,132.548,16.8784,0,0.000885,0,0
0:1:21.867,137.477,17.5058,0,0.000885,0,0
0:1:23.957,141.111,17.9677,0,0.000885,0,0
0:1:26.063,145.573,18.5331,0,0.000885,0,0
0:1:28.161,149.149,18.9882,0,0.000885,0,0
0:1:30.252,153.606,19.5604,0,0.000885,0,0
0:1:32.361,157.418,20.0431,0,0.000885,0,0
0:1:34.450,161.817,20.6015,0,0.000885,0,0
0:1:36.565,166.159,21.1531,0,0.000885,0,0
0:1:38.655,169.557,21.5875,0,0.000885,0,0
0:1:40.761,174.544,22.2218,0,0.000885,0,0
0:1:42.859,178.356,22.7113,0,0.000885,0,0
0:1:44.956,182.64,23.256,0,0.000885,0,0
0:1:47.065,186.745,23.78,0,0.000885,0,0
0:1:49.152,190.495,24.2558,0,0.000885,0,0
0:1:51.262,194.721,24.7935,0,0.000885,0,0
0:1:53.357,199.12,25.352,0,0.000885,0,0
0:1:55.457,202.99,25.8484,0,0.000885,0,0
0:1:57.557,207.447,26.4138,0,0.000885,0,0
0:1:59.652,211.144,26.8827,0,0.000885,0,0
0:2:1.750,215.774,27.4756,0,0.000885,0,0
0:2:3.851,219.119,27.8962,0,0.000885,0,0
0:2:5.954,224.164,28.5443,0,0.000885,0,0
0:2:8.052,227.562,28.9718,0,0.000885,0,0
0:2:10.156,231.788,29.5096,0,0.000885,0,0
0:2:12.252,235.542,29.9922,0,0.000885,0,0
0:2:14.354,240.996,30.6817,0,0.000885,0,0
0:2:16.454,244.221,31.0954,0,0.000885,0,0
0:2:18.548,248.793,31.6745,0,0.000885,0,0
0:2:20.659,252.548,32.1571,0,0.000885,0,0
0:2:22.744,256.36,32.6398,0,0.000885,0,0
0:2:24.858,260.466,33.1638,0,0.000885,0,0
0:2:26.956,264.513,33.6809,0,0.000885,0,0
0:2:29.046,269.206,34.2738,0,0.000885,0,0
0:2:31.159,273.192,34.7841,0,0.000885,0,0
0:2:33.257,277.004,35.2667,0,0.000885,0,0
0:2:35.350,281.581,35.8527,0,0.000885,0,0
0:2:37.460,285.451,36.3423,0,0.000885,0,0
0:2:39.549,289.384,36.8456,0,0.000885,0,0
0:2:41.648,294.423,37.4868,0,0.000885,0,0
0:2:43.750,297.768,37.9143,0,0.000885,0,0
0:2:45.859,301.816,38.4314,0,0.000885,0,0
0:2:47.961,306.038,38.9692,0,0.000885,0,0
0:2:50.056,310.201,39.4932,0,0.000885,0,0
0:2:52.163,314.6,40.0585,0,0.000885,0,0
0:2:54.258,318.413,40.5412,0,0.000885,0,0
0:2:56.355,323.048,41.1341,0,0.000885,0,0
0:2:58.447,326.215,41.534,0,0.000885,0,0
0:3:0.552,330.614,42.0925,0,0.000885,0,0
0:3:2.656,335.071,42.6648,0,0.000885,0,0
0:3:4.757,339.057,43.1681,0,0.000885,0,0
0:3:6.857,342.989,43.6714,0,0.000885,0,0
0:3:8.960,346.681,44.1402,0,0.000885,0,0
0:3:11.062,351.668,44.7746,0,0.000885,0,0
0:3:13.150,355.422,45.2503,0,0.000885,0,0
0:3:15.254,359.118,45.726,0,0.000885,0,0
0:3:17.359,364.1,46.3603,0,0.000885,0,0
0:3:19.458,367.561,46.8016,0,0.000885,0,0
0:3:21.564,372.547,47.4359,0,0.000885,0,0
0:3:23.653,376.186,47.8979,0,0.000885,0,0
0:3:25.752,379.936,48.3736,0,0.000885,0,0
0:3:27.863,384.571,48.9666,0,0.000885,0,0
0:3:29.954,388.267,49.4354,0,0.000885,0,0
0:3:32.064,392.84,50.0215,0,0.000885,0,0
0:3:34.167,397.355,50.5937,0,0.000885,0,0
0:3:36.265,400.522,50.9936,0,0.000885,0,0
0:3:38.350,405.157,51.5866,0,0.000885,0,0
0:3:40.460,409.379,52.1244,0,0.000885,0,0
0:3:42.562,413.369,52.6346,0,0.000885,0,0
0:3:44.662,417.648,53.1793,0,0.000885,0,0
0:3:46.761,421.696,53.6895,0,0.000885,0,0
0:3:48.853,425.392,54.1652,0,0.000885,0,0
0:3:50.957,430.027,54.7513,0,0.000885,0,0
0:3:53.057,433.719,55.2201,0,0.000885,0,0
0:3:55.163,438.297,55.8062,0,0.000885,0,0
0:3:57.259,441.522,56.213,0,0.000885,0,0
0:3:59.359,446.33,56.8266,0,0.000885,0,0
0:4:1.468,450.787,57.3989,0,0.000885,0,0
0:4:3.559,454.248,57.8332,0,0.000885,0,0
0:4:5.664,458.821,58.4193,0,0.000885,0,0
0:4:7.766,462.989,58.9502,0,0.000885,0,0
0:4:9.847,466.623,59.4121,0,0.000885,0,0
0:4:11.958,471.2,59.9982,0,0.000885,0,0
0:4:14.049,475.537,60.5498,0,0.000885,0,0
0:4:16.154,478.762,60.9565,0,0.000885,0,0
0:4:18.249,483.281,61.5357,0,0.000885,0,0
0:4:20.362,487.094,62.0183,0,0.000885,0,0
0:4:22.464,491.902,62.632,0,0.000885,0,0
0:4:24.558,495.656,63.1077,0,0.000885,0,0
0:4:26.657,499.936,63.6524,0,0.000885,0,0
0:4:28.760,504.161,64.1902,0,0.000885,0,0
0:4:30.853,507.738,64.6452,0,0.000885,0,0
0:4:32.962,512.489,65.252,0,0.000885,0,0
0:4:35.056,516.185,65.7208,0,0.000885,0,0
0:4:37.163,520.286,66.2448,0,0.000885,0,0
0:4:39.257,524.686,66.8033,0,0.000885,0,0
0:4:41.353,528.733,67.3204,0,0.000885,0,0
0:4:43.458,532.546,67.803,0,0.000885,0,0
0:4:45.575,537.71,68.4649,0,0.000885,0,0
0:4:47.672,540.993,68.8786,0,0.000885,0,0
0:4:49.775,545.272,69.4233,0,0.000885,0,0
0:4:51.873,549.378,69.9473,0,0.000885,0,0
0:4:53.968,553.955,70.5334,0,0.000885,0,0
0:4:56.071,557.589,70.9953,0,0.000885,0,0
0:4:58.161,561.637,71.5124,0,0.000885,0,0
0:5:0.255,565.391,71.9882,0,0.000885,0,0
0:5:2.362,570.084,72.588,0,0.000885,0,0
0:5:4.476,574.128,73.0982,0,0.000885,0,0
0:5:6.574,578.175,73.6153,0,0.000885,0,0
0:5:8.665,582.223,74.1324,0,0.000885,0,0
0:5:10.780,586.507,74.6771,0,0.000885,0,0
0:5:12.863,590.493,75.1873,0,0.000885,0,0
0:5:14.957,594.718,75.7251,0,0.000885,0,0
0:5:17.076,598.593,76.2146,0,0.000885,0,0
0:5:19.159,602.761,76.7455,0,0.000885,0,0
0:5:21.281,607.694,77.373,0,0.000885,0,0
0:5:23.373,611.217,77.8211,0,0.000885,0,0
0:5:25.478,615.736,78.4003,0,0.000885,0,0
0:5:27.572,619.611,78.8898,0,0.000885,0,0
0:5:29.662,624.246,79.4828,0,0.000885,0,0
0:5:31.773,628.004,79.9585,0,0.000885,0,0
0:5:33.856,632.052,80.4756,0,0.000885,0,0
0:5:35.981,635.811,80.9513,0,0.000885,0,0
0:5:38.074,640.21,81.5167,0,0.000885,0,0
0:5:40.167,644.32,82.0407,0,0.000885,0,0
0:5:42.279,648.137,82.5233,0,0.000885,0,0
0:5:44.360,652.011,83.0198,0,0.000885,0,0
0:5:46.466,656.531,83.592,0,0.000885,0,0
0:5:48.560,660.757,84.1298,0,0.000885,0,0
0:5:50.677,665.103,84.6814,0,0.000885,0,0
0:5:52.778,668.563,85.1227,0,0.000885,0,0
0:5:54.871,673.318,85.7294,0,0.000885,0,0
0:5:56.983,677.135,86.212,0,0.000885,0,0
0:5:59.065,681.597,86.7843,0,0.000885,0,0
0:6:1.169,685.293,87.2532,0,0.000885,0,0
0:6:3.268,689.403,87.7772,0,0.000885,0,0
0:6:5.364,693.335,88.2805,0,0.000885,0,0
0:6:7.469,697.383,88.7907,0,0.000885,0,0
0:6:9.562,701.551,89.3216,0,0.000885,0,0
0:6:11.671,706.071,89.9007,0,0.000885,0,0
0:6:13.756,710.065,90.411,0,0.000885,0,0
0:6:15.868,714.349,90.9556,0,0.000885,0,0
0:6:17.960,718.459,91.4796,0,0.000885,0,0
0:6:20.041,722.743,92.0243,0,0.000885,0,0
0:6:22.163,726.323,92.4794,0,0.000885,0,0
0:6:24.250,731.079,93.0861,0,0.000885,0,0
0:6:26.352,734.895,93.5688,0,0.000885,0,0
0:6:28.440,739.001,94.0928,0,0.000885,0,0
0:6:30.539,743.111,94.6168,0,0.000885,0,0
0:6:32.634,746.928,95.0994,0,0.000885,0,0
0:6:34.716,751.269,95.6579,0,0.000885,0,0
0:6:36.829,755.499,96.1957,0,0.000885,0,0
0:6:38.913,759.076,96.6507,0,0.000885,0,0
0:6:41.017,763.657,97.2299,0,0.000885,0,0
0:6:43.107,767.941,97.7746,0,0.000885,0,0
0:6:45.196,771.758,98.2641,0,0.000885,0,0
0:6:47.299,775.69,98.7605,0,0.000885,0,0
0:6:49.384,780.031,99.319,0,0.000885,0,0
0:6:51.493,784.319,99.8637,0,0.000885,0,0
0:6:53.580,788.661,100.415,0,0.000885,0,0
0:6:55.683,792.126,100.857,0,0.000885,0,0
0:6:57.783,796.53,101.415,0,0.000885,0,0
0:6:59.865,800.404,101.911,0,0.000885,0,0
0:7:1.978,805.097,102.511,0,0.000885,0,0
0:7:4.070,808.442,102.932,0,0.000885,0,0
0:7:6.186,813.255,103.545,0,0.000885,0,0
0:7:8.283,817.129,104.042,0,0.000885,0,0
0:7:10.372,821.417,104.587,0,0.000885,0,0
0:7:12.483,825.523,105.111,0,0.000885,0,0
0:7:14.571,829.46,105.607,0,0.000885,0,0
0:7:16.686,833.566,106.131,0,0.000885,0,0
0:7:18.777,837.44,106.627,0,0.000885,0,0
0:7:20.891,841.902,107.193,0,0.000885,0,0
0:7:22.980,846.185,107.737,0,0.000885,0,0
0:7:25.084,849.944,108.22,0,0.000885,0,0
0:7:27.190,854.29,108.772,0,0.000885,0,0
0:7:29.271,858.28,109.282,0,0.000885,0,0
0:7:31.385,862.915,109.868,0,0.000885,0,0
0:7:33.468,866.674,110.351,0,0.000885,0,0
0:7:35.570,870.9,110.888,0,0.000885,0,0
0:7:37.672,874.658,111.364,0,0.000885,0,0
0:7:39.774,878.942,111.909,0,0.000885,0,0
0:7:41.887,883.403,112.481,0,0.000885,0,0
0:7:43.970,887.1,112.95,0,0.000885,0,0
0:7:46.081,891.677,113.529,0,0.000885,0,0
0:7:48.182,895.494,114.019,0,0.000885,0,0
0:7:50.296,899.075,114.474,0,0.000885,0,0
0:7:52.392,904.008,115.101,0,0.000885,0,0
0:7:54.471,907.82,115.591,0,0.000885,0,0
0:7:56.583,912.108,116.135,0,0.000885,0,0
0:7:58.667,916.276,116.666,0,0.000885,0,0
0:8:0.769,920.266,117.17,0,0.000885,0,0
0:8:2.869,923.789,117.618,0,0.000885,0,0
0:8:4.972,928.838,118.266,0,0.000885,0,0
0:8:7.082,932.356,118.714,0,0.000885,0,0
0:8:9.171,934.353,118.969,0,0.000885,0,0
0:8:11.283,941.399,119.865,0,0.000885,0,0
0:8:13.394,943.922,120.183,0,0.000885,0,0
0:8:15.486,941.573,119.886,0,0.000885,0,0
0:8:17.581,799.817,101.836,0,0.000885,0,0
0:8:19.679,794.59,101.174,0,0.000885,0,0
0:8:20.909,662.167,84.3091,0,0.000885,0,0