File: DataFile2021-07-28_105420.csv
Test ID:,Date Tested:,Time:,Test Type:,Diameter Avg. (mm):,Cyl. Corr. Factor:,Height (mm):,Age (days):,Weight (kN):,Break Type:,Ramp Rate (MPa/s):,Load at Break (kN):,Stress at Break (MPa):
12,7/28/2021,10:54,Cylinder,100,1,200,0,13.69,3,0.34,848.77,108.07
Sample Time,Load (kN),Stress (MPa),Long. Strain,Trans. Strain,Chan1 Deflection (mm),Chan2 Deflection (mm)
0:0:17.828,5.57362,0.71016,0,0.000885,0,0
0:0:19.129,9.61706,1.22727,0,0.000885,0,0
0:0:20.439,11.1428,1.42032,0,0.000885,0,0
0:0:21.741,15.4264,1.96501,0,0.000885,0,0
0:0:23.035,19.5321,2.48901,0,0.000885,0,0
0:0:24.350,22.4057,2.85443,0,0.000885,0,0
0:0:25.649,27.1564,3.45427,0,0.000885,0,0
0:0:26.946,30.9685,3.9438,0,0.000885,0,0
0:0:28.243,34.7806,4.42643,0,0.000885,0,0
0:0:29.559,37.5964,4.78496,0,0.000885,0,0
0:0:30.849,40.5277,5.15728,0,0.000885,0,0
0:0:32.146,44.6335,5.68128,0,0.000885,0,0
0:0:33.447,48.6191,6.19149,0,0.000885,0,0
0:0:34.759,52.0798,6.63276,0,0.000885,0,0
0:0:36.050,55.367,7.04644,0,0.000885,0,0
0:0:37.347,58.8277,7.48771,0,0.000885,0,0
0:0:38.647,62.2262,7.92208,0,0.000885,0,0
0:0:39.958,65.8648,8.38402,0,0.000885,0,0
0:0:41.253,69.6769,8.87355,0,0.000885,0,0
0:0:42.547,73.7248,9.38376,0,0.000885,0,0
0:0:43.850,76.5405,9.74229,0,0.000885,0,0
0:0:45.160,80.2326,10.218,0,0.000885,0,0
0:0:46.457,84.107,10.7076,0,0.000885,0,0
0:0:47.751,87.5632,11.1488,0,0.000885,0,0
0:0:49.065,91.4955,11.6521,0,0.000885,0,0
0:0:50.363,95.014,12.1003,0,0.000885,0,0
0:0:51.657,98.239,12.5071,0,0.000885,0,0
0:0:52.949,101.993,12.9828,0,0.000885,0,0
0:0:54.265,105.454,13.4241,0,0.000885,0,0
0:0:55.565,109.088,13.8929,0,0.000885,0,0
0:0:56.860,112.549,14.3273,0,0.000885,0,0
0:0:58.149,115.774,14.741,0,0.000885,0,0
0:0:59.467,119.822,15.2581,0,0.000885,0,0
0:1:0.764,123.634,15.7407,0,0.000885,0,0
0:1:2.060,126.859,16.1544,0,0.000885,0,0
0:1:3.363,130.382,16.6026,0,0.000885,0,0
0:1:4.673,134.603,17.1404,0,0.000885,0,0
0:1:5.968,137.361,17.492,0,0.000885,0,0
0:1:7.260,141.173,17.9746,0,0.000885,0,0
0:1:8.565,144.692,18.4228,0,0.000885,0,0
0:1:9.873,148.504,18.9054,0,0.000885,0,0
0:1:11.171,152.196,19.3812,0,0.000885,0,0
0:1:12.464,155.541,19.8017,0,0.000885,0,0
0:1:13.772,159.117,20.2568,0,0.000885,0,0
0:1:15.077,162.698,20.7119,0,0.000885,0,0
0:1:16.369,166.626,21.2152,0,0.000885,0,0
0:1:17.664,169.615,21.5944,0,0.000885,0,0
0:1:18.974,173.369,22.077,0,0.000885,0,0
0:1:20.279,177.008,22.539,0,0.000885,0,0
0:1:21.569,180.527,22.9871,0,0.000885,0,0
0:1:22.866,184.223,23.456,0,0.000885,0,0
0:1:24.178,187.622,23.8903,0,0.000885,0,0
0:1:25.480,191.024,24.3247,0,0.000885,0,0
0:1:26.770,194.894,24.8142,0,0.000885,0,0
0:1:28.050,198.413,25.2624,0,0.000885,0,0
0:1:29.357,202.052,25.7243,0,0.000885,0,0
0:1:30.647,205.219,26.1311,0,0.000885,0,0
0:1:31.946,209.089,26.6207,0,0.000885,0,0
0:1:33.245,213.016,27.124,0,0.000885,0,0
0:1:34.550,216.246,27.5308,0,0.000885,0,0
0:1:35.849,219.88,27.9927,0,0.000885,0,0
0:1:37.145,223.225,28.4202,0,0.000885,0,0
0:1:38.438,227.153,28.9235,0,0.000885,0,0
0:1:39.747,230.792,29.3855,0,0.000885,0,0
0:1:41.042,233.959,29.7854,0,0.000885,0,0
0:1:42.345,237.709,30.268,0,0.000885,0,0
0:1:43.651,241.232,30.7161,0,0.000885,0,0
0:1:44.947,244.924,31.185,0,0.000885,0,0
0:1:46.245,247.855,31.5573,0,0.000885,0,0
0:1:47.527,252.081,32.0951,0,0.000885,0,0
0:1:48.827,255.599,32.5433,0,0.000885,0,0
0:1:50.122,259.002,32.9776,0,0.000885,0,0
0:1:51.446,262.343,33.4051,0,0.000885,0,0
0:1:52.752,266.155,33.8877,0,0.000885,0,0
0:1:54.052,269.558,34.3221,0,0.000885,0,0
0:1:55.348,273.37,34.8047,0,0.000885,0,0
0:1:56.649,277.182,35.2943,0,0.000885,0,0
0:1:57.944,280.291,35.6873,0,0.000885,0,0
0:1:59.256,284.103,36.1699,0,0.000885,0,0
0:2:0.549,286.919,36.5284,0,0.000885,0,0
0:2:1.843,291.025,37.0524,0,0.000885,0,0
0:2:3.145,294.659,37.5144,0,0.000885,0,0
0:2:4.452,298.004,37.9418,0,0.000885,0,0
0:2:5.750,301.758,38.4176,0,0.000885,0,0
0:2:7.048,305.157,38.852,0,0.000885,0,0
0:2:8.350,308.853,39.3277,0,0.000885,0,0
0:2:9.653,313.075,39.8655,0,0.000885,0,0
0:2:10.942,315.948,40.2309,0,0.000885,0,0
0:2:12.249,319.76,40.7135,0,0.000885,0,0
0:2:13.552,323.341,41.1686,0,0.000885,0,0
0:2:14.851,326.682,41.5961,0,0.000885,0,0
0:2:16.147,330.73,42.1132,0,0.000885,0,0
0:2:17.452,333.603,42.4786,0,0.000885,0,0
0:2:18.753,337.593,42.9819,0,0.000885,0,0
0:2:20.053,341.285,43.4508,0,0.000885,0,0
0:2:21.347,345.04,43.9334,0,0.000885,0,0
0:2:22.650,348.558,44.3816,0,0.000885,0,0
0:2:23.954,352.139,44.8366,0,0.000885,0,0
0:2:25.253,355.537,45.271,0,0.000885,0,0
0:2:26.551,358.825,45.6847,0,0.000885,0,0
0:2:27.852,362.517,46.1604,0,0.000885,0,0
0:2:29.158,366.271,46.6361,0,0.000885,0,0
0:2:30.447,369.616,47.0636,0,0.000885,0,0
0:2:31.755,373.019,47.4911,0,0.000885,0,0
0:2:33.054,376.595,47.9461,0,0.000885,0,0
0:2:34.360,380.114,48.3943,0,0.000885,0,0
0:2:35.647,384.335,48.9321,0,0.000885,0,0
0:2:36.954,387.796,49.3734,0,0.000885,0,0
0:2:38.254,391.55,49.856,0,0.000885,0,0
0:2:39.562,394.895,50.2766,0,0.000885,0,0
0:2:40.849,397.885,50.6627,0,0.000885,0,0
0:2:42.154,401.697,51.1453,0,0.000885,0,0
0:2:43.458,405.687,51.6555,0,0.000885,0,0
0:2:44.755,408.969,52.0692,0,0.000885,0,0
0:2:46.048,412.666,52.5449,0,0.000885,0,0
0:2:47.351,415.949,52.9586,0,0.000885,0,0
0:2:48.656,420.29,53.5102,0,0.000885,0,0
0:2:49.954,423.515,53.9239,0,0.000885,0,0
0:2:51.250,427.212,54.3927,0,0.000885,0,0
0:2:52.550,430.437,54.8064,0,0.000885,0,0
0:2:53.856,433.662,55.2132,0,0.000885,0,0
0:2:55.153,437.532,55.7096,0,0.000885,0,0
0:2:56.450,441.637,56.2336,0,0.000885,0,0
0:2:57.750,445.04,56.6611,0,0.000885,0,0
0:2:59.056,448.385,57.0886,0,0.000885,0,0
0:3:0.355,451.726,57.5161,0,0.000885,0,0
0:3:1.652,455.538,57.9987,0,0.000885,0,0
0:3:2.953,459.292,58.4813,0,0.000885,0,0
0:3:4.259,462.459,58.8812,0,0.000885,0,0
0:3:5.559,466.214,59.357,0,0.000885,0,0
0:3:6.855,470.493,59.9085,0,0.000885,0,0
0:3:8.155,473.135,60.2395,0,0.000885,0,0
0:3:9.461,476.769,60.7014,0,0.000885,0,0
0:3:10.747,480.172,61.1358,0,0.000885,0,0
0:3:12.053,483.984,61.6253,0,0.000885,0,0
0:3:13.358,488.148,62.1562,0,0.000885,0,0
0:3:14.664,491.373,62.563,0,0.000885,0,0
0:3:15.952,495.069,63.0319,0,0.000885,0,0
0:3:17.254,498.236,63.4387,0,0.000885,0,0
0:3:18.558,502.164,63.9351,0,0.000885,0,0
0:3:19.853,506.154,64.4453,0,0.000885,0,0
0:3:21.160,509.264,64.8383,0,0.000885,0,0
0:3:22.448,513.076,65.3278,0,0.000885,0,0
0:3:23.759,515.949,65.6932,0,0.000885,0,0
0:3:25.053,520.228,66.2379,0,0.000885,0,0
0:3:26.348,523.516,66.6585,0,0.000885,0,0
0:3:27.649,526.269,67.0101,0,0.000885,0,0
0:3:28.961,530.611,67.5617,0,0.000885,0,0
0:3:30.255,534.071,68.003,0,0.000885,0,0
0:3:31.560,537.826,68.4787,0,0.000885,0,0
0:3:32.849,541.522,68.9476,0,0.000885,0,0
0:3:34.159,544.453,69.3199,0,0.000885,0,0
0:3:35.446,547.794,69.7474,0,0.000885,0,0
0:3:36.760,552.193,70.3058,0,0.000885,0,0
0:3:38.054,555.654,70.7471,0,0.000885,0,0
0:3:39.359,559.351,71.2159,0,0.000885,0,0
0:3:40.659,562.633,71.6365,0,0.000885,0,0
0:3:41.958,566.739,72.1605,0,0.000885,0,0
0:3:43.246,570.258,72.6087,0,0.000885,0,0
0:3:44.549,573.309,72.9948,0,0.000885,0,0
0:3:45.837,577.824,73.574,0,0.000885,0,0
0:3:47.120,580.755,73.9463,0,0.000885,0,0
0:3:48.409,584.394,74.4082,0,0.000885,0,0
0:3:49.715,587.561,74.8081,0,0.000885,0,0
0:3:51.004,590.728,75.2149,0,0.000885,0,0
0:3:52.298,595.074,75.7665,0,0.000885,0,0
0:3:53.596,597.952,76.1319,0,0.000885,0,0
0:3:54.907,601.822,76.6283,0,0.000885,0,0
0:3:56.195,606.11,77.173,0,0.000885,0,0
0:3:57.488,609.162,77.5591,0,0.000885,0,0
0:3:58.795,612.978,78.0487,0,0.000885,0,0
0:4:0.094,616.03,78.4348,0,0.000885,0,0
0:4:1.386,620.14,78.9588,0,0.000885,0,0
0:4:2.674,622.604,79.269,0,0.000885,0,0
0:4:3.986,626.536,79.7723,0,0.000885,0,0
0:4:5.279,630.002,80.2136,0,0.000885,0,0
0:4:6.573,633.698,80.6824,0,0.000885,0,0
0:4:7.858,637.221,81.1306,0,0.000885,0,0
0:4:9.169,641.095,81.627,0,0.000885,0,0
0:4:10.466,645.263,82.1579,0,0.000885,0,0
0:4:11.766,648.844,82.613,0,0.000885,0,0
0:4:13.053,650.957,82.8819,0,0.000885,0,0
0:4:14.367,656.122,83.5369,0,0.000885,0,0
0:4:15.662,659.115,83.923,0,0.000885,0,0
0:4:16.960,662.87,84.3987,0,0.000885,0,0
0:4:18.264,666.219,84.8262,0,0.000885,0,0
0:4:19.575,669.564,85.2537,0,0.000885,0,0
0:4:20.869,673.318,85.7294,0,0.000885,0,0
0:4:22.167,677.193,86.2258,0,0.000885,0,0
0:4:23.461,680.186,86.605,0,0.000885,0,0
0:4:24.773,684.354,87.1359,0,0.000885,0,0
0:4:26.061,687.82,87.5772,0,0.000885,0,0
0:4:27.364,691.107,87.9909,0,0.000885,0,0
0:4:28.677,694.1,88.377,0,0.000885,0,0
0:4:29.980,698.091,88.8803,0,0.000885,0,0
0:4:31.267,702.023,89.3836,0,0.000885,0,0
0:4:32.569,705.782,89.8594,0,0.000885,0,0
0:4:33.875,708.775,90.2455,0,0.000885,0,0
0:4:35.175,712.765,90.7488,0,0.000885,0,0
0:4:36.464,716.404,91.2176,0,0.000885,0,0
0:4:37.762,719.927,91.6658,0,0.000885,0,0
0:4:39.073,723.392,92.1071,0,0.000885,0,0
0:4:40.368,726.617,92.5139,0,0.000885,0,0
0:4:41.660,730.082,92.9551,0,0.000885,0,0
0:4:42.967,733.899,93.4446,0,0.000885,0,0
0:4:44.280,737.186,93.8583,0,0.000885,0,0
0:4:45.572,741.234,94.3754,0,0.000885,0,0
0:4:46.866,744.993,94.8581,0,0.000885,0,0
0:4:48.161,747.986,95.2373,0,0.000885,0,0
0:4:49.474,751.918,95.7406,0,0.000885,0,0
0:4:50.768,755.557,96.2025,0,0.000885,0,0
0:4:52.069,759.022,96.6438,0,0.000885,0,0
0:4:53.368,762.777,97.1196,0,0.000885,0,0
0:4:54.674,766.064,97.5401,0,0.000885,0,0
0:4:55.965,769.76,98.009,0,0.000885,0,0
0:4:57.253,773.755,98.5192,0,0.000885,0,0
0:4:58.559,776.277,98.8363,0,0.000885,0,0
0:4:59.866,780.681,99.4017,0,0.000885,0,0
0:5:1.168,784.262,99.8568,0,0.000885,0,0
0:5:2.464,788.078,100.339,0,0.000885,0,0
0:5:3.776,791.303,100.753,0,0.000885,0,0
0:5:5.078,794.884,101.208,0,0.000885,0,0
0:5:6.373,798.7,101.691,0,0.000885,0,0
0:5:7.670,802.401,102.167,0,0.000885,0,0
0:5:8.980,805.159,102.518,0,0.000885,0,0
0:5:10.273,809.034,103.008,0,0.000885,0,0
0:5:11.565,812.201,103.414,0,0.000885,0,0
0:5:12.873,816.72,103.987,0,0.000885,0,0
0:5:14.184,819.656,104.359,0,0.000885,0,0
0:5:15.476,823.766,104.883,0,0.000885,0,0
0:5:16.766,826.933,105.29,0,0.000885,0,0
0:5:18.074,830.692,105.766,0,0.000885,0,0
0:5:19.385,833.099,106.076,0,0.000885,0,0
0:5:20.681,836.27,106.476,0,0.000885,0,0
0:5:21.969,840.26,106.986,0,0.000885,0,0
0:5:23.270,845.251,107.62,0,0.000885,0,0
0:5:24.581,848.77,108.068,0,0.000885,0,0
0:5:25.875,843.369,107.379,0,0.000885,0,0
0:5:27.166,732.604,93.2792,0,0.000885,0,0
0:5:27.671,638.511,81.2961,0,0.000885,0,0