File: DataFile2021-06-29_054116.csv
Test ID:,Date Tested:,Time:,Test Type:,Diameter Avg. (mm):,Cyl. Corr. Factor:,Height (mm):,Age (days):,Weight (kN):,Break Type:,Ramp Rate (MPa/s):,Load at Break (kN):,Stress at Break (MPa):
12,6/29/2021,05:41,Cylinder,100,1,200,0,3.6,3,0.22,281.82,35.88
Sample Time,Load (kN),Stress (MPa),Long. Strain,Trans. Strain,Chan1 Deflection (mm),Chan2 Deflection (mm)
0:0:17.893,6.33427,0.806687,0,0.000885,0,0
0:0:18.600,12.9043,1.64095,0,0.000885,0,0
0:0:19.314,11.4364,1.45479,0,0.000885,0,0
0:0:20.008,11.2629,1.43411,0,0.000885,0,0
0:0:20.714,11.085,1.41343,0,0.000885,0,0
0:0:21.414,11.552,1.46858,0,0.000885,0,0
0:0:22.110,12.7842,1.62716,0,0.000885,0,0
0:0:22.816,14.3099,1.82022,0,0.000885,0,0
0:0:23.514,15.7778,2.00637,0,0.000885,0,0
0:0:24.224,17.2413,2.19253,0,0.000885,0,0
0:0:24.928,19.0028,2.42006,0,0.000885,0,0
0:0:25.620,20.702,2.6338,0,0.000885,0,0
0:0:26.321,22.1699,2.81996,0,0.000885,0,0
0:0:27.017,23.6378,3.00611,0,0.000885,0,0
0:0:27.710,24.2828,3.08885,0,0.000885,0,0
0:0:28.411,25.6885,3.26811,0,0.000885,0,0
0:0:29.122,27.1564,3.45427,0,0.000885,0,0
0:0:29.828,28.3886,3.61285,0,0.000885,0,0
0:0:30.529,30.2034,3.84727,0,0.000885,0,0
0:0:31.222,31.787,4.04722,0,0.000885,0,0
0:0:31.919,33.1971,4.22649,0,0.000885,0,0
0:0:32.617,33.8421,4.30922,0,0.000885,0,0
0:0:33.318,35.1899,4.48159,0,0.000885,0,0
0:0:34.025,37.067,4.72291,0,0.000885,0,0
0:0:34.729,38.0634,4.84701,0,0.000885,0,0
0:0:35.424,39.647,5.04696,0,0.000885,0,0
0:0:36.124,40.937,5.21244,0,0.000885,0,0
0:0:36.820,42.1691,5.37102,0,0.000885,0,0
0:0:37.514,44.0463,5.60544,0,0.000885,0,0
0:0:38.213,45.0427,5.73644,0,0.000885,0,0
0:0:38.923,46.3905,5.90881,0,0.000885,0,0
0:0:39.629,47.7428,6.08118,0,0.000885,0,0
0:0:40.329,48.9126,6.22597,0,0.000885,0,0
0:0:41.023,50.6163,6.4466,0,0.000885,0,0
0:0:41.720,51.9641,6.61897,0,0.000885,0,0
0:0:42.417,53.0806,6.75686,0,0.000885,0,0
0:0:43.112,54.6642,6.95681,0,0.000885,0,0
0:0:43.820,56.5369,7.19813,0,0.000885,0,0
0:0:44.527,57.6534,7.34292,0,0.000885,0,0
0:0:45.224,58.1827,7.40497,0,0.000885,0,0
0:0:45.925,59.9398,7.6325,0,0.000885,0,0
0:0:46.620,61.2876,7.80487,0,0.000885,0,0
0:0:47.317,62.6977,7.98413,0,0.000885,0,0
0:0:48.017,64.2234,8.17718,0,0.000885,0,0
0:0:48.718,65.5134,8.34266,0,0.000885,0,0
0:0:49.428,67.3906,8.57708,0,0.000885,0,0
0:0:50.132,68.387,8.70808,0,0.000885,0,0
0:0:50.826,69.7348,8.88045,0,0.000885,0,0
0:0:51.524,71.3762,9.08729,0,0.000885,0,0
0:0:52.221,72.4348,9.22519,0,0.000885,0,0
0:0:52.914,73.7248,9.38376,0,0.000885,0,0
0:0:53.625,75.4819,9.61129,0,0.000885,0,0
0:0:54.330,76.247,9.70782,0,0.000885,0,0
0:0:55.031,78.5912,10.0043,0,0.000885,0,0
0:0:55.728,79.4141,10.1077,0,0.000885,0,0
0:0:56.422,80.6463,10.2663,0,0.000885,0,0
0:0:57.119,82.0519,10.4456,0,0.000885,0,0
0:0:57.817,83.5198,10.6317,0,0.000885,0,0
0:0:58.518,84.752,10.7903,0,0.000885,0,0
0:0:59.226,86.5668,11.0247,0,0.000885,0,0
0:0:59.929,88.0926,11.2178,0,0.000885,0,0
0:1:0.624,89.4404,11.3901,0,0.000885,0,0
0:1:1.323,90.379,11.5073,0,0.000885,0,0
0:1:2.019,92.0826,11.7211,0,0.000885,0,0
0:1:2.713,93.4883,11.9004,0,0.000885,0,0
0:1:3.412,94.3112,12.0107,0,0.000885,0,0
0:1:4.122,95.6012,12.1692,0,0.000885,0,0
0:1:4.826,97.3004,12.3899,0,0.000885,0,0
0:1:5.527,98.884,12.5898,0,0.000885,0,0
0:1:6.219,100.116,12.7484,0,0.000885,0,0
0:1:6.918,101.406,12.9139,0,0.000885,0,0
0:1:7.616,102.816,13.0931,0,0.000885,0,0
0:1:8.326,104.164,13.2655,0,0.000885,0,0
0:1:9.033,105.276,13.4034,0,0.000885,0,0
0:1:9.738,106.802,13.5965,0,0.000885,0,0
0:1:10.429,107.683,13.7137,0,0.000885,0,0
0:1:11.129,109.618,13.955,0,0.000885,0,0
0:1:11.825,111.317,14.1756,0,0.000885,0,0
0:1:12.520,112.491,14.3204,0,0.000885,0,0
0:1:13.221,114.253,14.5479,0,0.000885,0,0
0:1:13.928,115.191,14.6651,0,0.000885,0,0
0:1:14.634,116.712,14.8582,0,0.000885,0,0
0:1:15.332,117.713,14.9892,0,0.000885,0,0
0:1:16.024,119.764,15.2512,0,0.000885,0,0
0:1:16.722,120.293,15.3133,0,0.000885,0,0
0:1:17.420,121.583,15.4787,0,0.000885,0,0
0:1:18.109,123.282,15.6994,0,0.000885,0,0
0:1:18.821,124.457,15.8442,0,0.000885,0,0
0:1:19.527,126.507,16.1062,0,0.000885,0,0
0:1:20.227,127.446,16.2303,0,0.000885,0,0
0:1:20.925,128.972,16.4233,0,0.000885,0,0
0:1:21.619,130.026,16.5543,0,0.000885,0,0
0:1:22.316,131.552,16.7474,0,0.000885,0,0
0:1:23.015,133.607,17.0094,0,0.000885,0,0
0:1:23.724,135.07,17.1955,0,0.000885,0,0
0:1:24.432,136.245,17.3472,0,0.000885,0,0
0:1:25.136,136.774,17.4162,0,0.000885,0,0
0:1:25.828,138.945,17.6919,0,0.000885,0,0
0:1:26.526,140.177,17.8505,0,0.000885,0,0
0:1:27.223,141.289,17.9884,0,0.000885,0,0
0:1:27.917,143.166,18.2297,0,0.000885,0,0
0:1:28.626,143.811,18.3125,0,0.000885,0,0
0:1:29.332,144.75,18.4297,0,0.000885,0,0
0:1:30.031,146.685,18.6779,0,0.000885,0,0
0:1:30.730,147.859,18.8227,0,0.000885,0,0
0:1:31.421,149.794,19.0709,0,0.000885,0,0
0:1:32.121,150.79,19.2019,0,0.000885,0,0
0:1:32.818,152.258,19.3881,0,0.000885,0,0
0:1:33.522,153.722,19.5742,0,0.000885,0,0
0:1:34.227,154.78,19.7052,0,0.000885,0,0
0:1:34.929,156.422,19.919,0,0.000885,0,0
0:1:35.624,157.596,20.0637,0,0.000885,0,0
0:1:36.323,159.002,20.243,0,0.000885,0,0
0:1:37.024,160.585,20.443,0,0.000885,0,0
0:1:37.721,162.169,20.6498,0,0.000885,0,0
0:1:38.419,163.343,20.7946,0,0.000885,0,0
0:1:39.129,165.158,21.029,0,0.000885,0,0
0:1:39.834,165.865,21.1186,0,0.000885,0,0
0:1:40.529,168.094,21.4013,0,0.000885,0,0
0:1:41.225,168.677,21.4772,0,0.000885,0,0
0:1:41.924,170.087,21.6564,0,0.000885,0,0
0:1:42.618,171.199,21.8012,0,0.000885,0,0
0:1:43.324,172.902,22.015,0,0.000885,0,0
0:1:44.033,174.192,22.1804,0,0.000885,0,0
0:1:44.740,175.66,22.3666,0,0.000885,0,0
0:1:45.440,177.066,22.5459,0,0.000885,0,0
0:1:46.132,178.24,22.6906,0,0.000885,0,0
0:1:46.829,179.294,22.8285,0,0.000885,0,0
0:1:47.527,181.932,23.1664,0,0.000885,0,0
0:1:48.219,182.11,23.1871,0,0.000885,0,0
0:1:48.928,183.809,23.4008,0,0.000885,0,0
0:1:49.633,184.806,23.5318,0,0.000885,0,0
0:1:50.332,187.034,23.8145,0,0.000885,0,0
0:1:51.031,188.502,24.0007,0,0.000885,0,0
0:1:51.723,189.263,24.0972,0,0.000885,0,0
0:1:52.423,191.14,24.3385,0,0.000885,0,0
0:1:53.118,191.669,24.4074,0,0.000885,0,0
0:1:53.819,193.547,24.6419,0,0.000885,0,0
0:1:54.522,194.543,24.7729,0,0.000885,0,0
0:1:55.218,196.127,24.9728,0,0.000885,0,0
0:1:55.919,197.537,25.1521,0,0.000885,0,0
0:1:56.623,198.649,25.29,0,0.000885,0,0
0:1:57.318,200.468,25.5244,0,0.000885,0,0
0:1:58.023,202.167,25.7381,0,0.000885,0,0
0:1:58.727,203.164,25.8691,0,0.000885,0,0
0:1:59.428,204.747,26.0691,0,0.000885,0,0
0:2:0.122,205.628,26.1794,0,0.000885,0,0
0:2:0.821,207.563,26.4276,0,0.000885,0,0
0:2:1.523,208.386,26.531,0,0.000885,0,0
0:2:2.218,209.849,26.7172,0,0.000885,0,0
0:2:2.925,211.669,26.9516,0,0.000885,0,0
0:2:3.629,213.079,27.1309,0,0.000885,0,0
0:2:4.331,214.133,27.2619,0,0.000885,0,0
0:2:5.025,215.717,27.4687,0,0.000885,0,0
0:2:5.718,216.597,27.579,0,0.000885,0,0
0:2:6.417,218.354,27.7997,0,0.000885,0,0
0:2:7.127,219.938,28.0065,0,0.000885,0,0
0:2:7.820,220.467,28.0686,0,0.000885,0,0
0:2:8.524,223.167,28.4133,0,0.000885,0,0
0:2:9.227,223.577,28.4685,0,0.000885,0,0
0:2:9.924,225.218,28.6753,0,0.000885,0,0
0:2:10.623,226.041,28.7787,0,0.000885,0,0
0:2:11.326,227.624,28.9787,0,0.000885,0,0
0:2:12.026,229.146,29.1786,0,0.000885,0,0
0:2:12.725,230.849,29.3924,0,0.000885,0,0
0:2:13.419,232.255,29.5716,0,0.000885,0,0
0:2:14.121,233.251,29.6957,0,0.000885,0,0
0:2:14.822,234.426,29.8474,0,0.000885,0,0
0:2:15.524,235.894,30.0336,0,0.000885,0,0
0:2:16.222,237.593,30.2542,0,0.000885,0,0
0:2:16.923,238.941,30.4197,0,0.000885,0,0
0:2:17.624,240.231,30.5851,0,0.000885,0,0
0:2:18.321,241.641,30.7644,0,0.000885,0,0
0:2:19.024,242.459,30.8678,0,0.000885,0,0
0:2:19.722,244.688,31.1574,0,0.000885,0,0
0:2:20.421,245.101,31.2057,0,0.000885,0,0
0:2:21.126,246.801,31.4263,0,0.000885,0,0
0:2:21.822,248.384,31.6263,0,0.000885,0,0
0:2:22.523,250.204,31.8538,0,0.000885,0,0
0:2:23.227,251.142,31.9779,0,0.000885,0,0
0:2:23.930,252.668,32.1709,0,0.000885,0,0
0:2:24.631,254.074,32.3502,0,0.000885,0,0
0:2:25.324,255.364,32.5157,0,0.000885,0,0
0:2:26.021,256.596,32.6674,0,0.000885,0,0
0:2:26.724,258.295,32.888,0,0.000885,0,0
0:2:27.425,259.176,32.9983,0,0.000885,0,0
0:2:28.121,260.114,33.1155,0,0.000885,0,0
0:2:28.824,261.934,33.3499,0,0.000885,0,0
0:2:29.525,263.046,33.4947,0,0.000885,0,0
0:2:30.219,265.216,33.7705,0,0.000885,0,0
0:2:30.924,266.448,33.9222,0,0.000885,0,0
0:2:31.621,267.681,34.0808,0,0.000885,0,0
0:2:32.321,268.797,34.2256,0,0.000885,0,0
0:2:33.024,270.087,34.391,0,0.000885,0,0
0:2:33.728,271.199,34.5289,0,0.000885,0,0
0:2:34.432,272.547,34.7013,0,0.000885,0,0
0:2:35.133,274.486,34.9495,0,0.000885,0,0
0:2:35.821,276.008,35.1426,0,0.000885,0,0
0:2:36.524,276.715,35.2322,0,0.000885,0,0
0:2:37.225,278.063,35.4046,0,0.000885,0,0
0:2:37.923,279.175,35.5425,0,0.000885,0,0
0:2:38.629,280.171,35.6735,0,0.000885,0,0
0:2:39.331,280.994,35.7769,0,0.000885,0,0
0:2:40.023,280.936,35.77,0,0.000885,0,0
0:2:40.725,281.523,35.8458,0,0.000885,0,0
0:2:41.423,281.523,35.8458,0,0.000885,0,0
0:2:42.111,280.527,35.7148,0,0.000885,0,0
0:2:42.824,278.823,35.5011,0,0.000885,0,0
0:2:43.514,273.486,34.8185,0,0.000885,0,0
0:2:44.217,263.339,33.5292,0,0.000885,0,0
0:2:44.915,249.149,31.7228,0,0.000885,0,0
0:2:45.611,228.207,29.0545,0,0.000885,0,0
0:2:46.303,198.649,25.29,0,0.000885,0,0
0:2:46.335,198.649,25.29,0,0.000885,0,0