File: DataFile2021-06-29_074115.csv
Test ID:,Date Tested:,Time:,Test Type:,Diameter Avg. (mm):,Cyl. Corr. Factor:,Height (mm):,Age (days):,Weight (kN):,Break Type:,Ramp Rate (MPa/s):,Load at Break (kN):,Stress at Break (MPa):
12,6/29/2021,07:41,Cylinder,150,1,300,0,3.6,3,0.24,575.19,32.55
Sample Time,Load (kN),Stress (MPa),Long. Strain,Trans. Strain,Chan1 Deflection (mm),Chan2 Deflection (mm)
0:0:18.374,5.92503,0.337843,0,0.000885,0,0
0:0:18.971,13.6649,0.772213,0,0.000885,0,0
0:0:19.568,12.7842,0.72395,0,0.000885,0,0
0:0:20.162,13.2557,0.751529,0,0.000885,0,0
0:0:20.757,14.0163,0.792897,0,0.000885,0,0
0:0:21.351,16.7742,0.951477,0,0.000885,0,0
0:0:21.949,19.8257,1.12385,0,0.000885,0,0
0:0:22.548,23.7535,1.34448,0,0.000885,0,0
0:0:23.147,26.0977,1.47548,0,0.000885,0,0
0:0:23.745,29.6207,1.67543,0,0.000885,0,0
0:0:24.354,32.3742,1.83401,0,0.000885,0,0
0:0:24.959,35.2477,1.99258,0,0.000885,0,0
0:0:25.560,36.7734,2.08222,0,0.000885,0,0
0:0:26.159,39.4735,2.2339,0,0.000885,0,0
0:0:26.757,42.1691,2.38559,0,0.000885,0,0
0:0:27.354,44.927,2.54417,0,0.000885,0,0
0:0:27.948,47.9162,2.70964,0,0.000885,0,0
0:0:28.544,49.7934,2.81996,0,0.000885,0,0
0:0:29.153,53.0184,2.99922,0,0.000885,0,0
0:0:29.760,55.5405,3.14401,0,0.000885,0,0
0:0:30.366,58.6498,3.31638,0,0.000885,0,0
0:0:30.962,60.6426,3.43359,0,0.000885,0,0
0:0:31.559,63.4583,3.59217,0,0.000885,0,0
0:0:32.152,66.5676,3.76454,0,0.000885,0,0
0:0:32.751,68.6805,3.88864,0,0.000885,0,0
0:0:33.351,70.789,4.00585,0,0.000885,0,0
0:0:33.950,73.9561,4.18512,0,0.000885,0,0
0:0:34.561,76.892,4.35059,0,0.000885,0,0
0:0:35.166,78.8848,4.46091,0,0.000885,0,0
0:0:35.765,81.874,4.63328,0,0.000885,0,0
0:0:36.362,84.5162,4.78496,0,0.000885,0,0
0:0:36.962,87.154,4.92975,0,0.000885,0,0
0:0:37.561,90.379,5.11591,0,0.000885,0,0
0:0:38.158,92.3139,5.22623,0,0.000885,0,0
0:0:38.759,94.9562,5.37102,0,0.000885,0,0
0:0:39.367,97.1269,5.49512,0,0.000885,0,0
0:0:39.973,101.055,5.71575,0,0.000885,0,0
0:0:40.572,103.635,5.86744,0,0.000885,0,0
0:0:41.171,106.628,6.03291,0,0.000885,0,0
0:0:41.767,108.679,6.15012,0,0.000885,0,0
0:0:42.363,110.556,6.25354,0,0.000885,0,0
0:0:42.958,114.426,6.47418,0,0.000885,0,0
0:0:43.556,116.481,6.59139,0,0.000885,0,0
0:0:44.166,119.47,6.76376,0,0.000885,0,0
0:0:44.772,122.05,6.90855,0,0.000885,0,0
0:0:45.378,124.693,7.05334,0,0.000885,0,0
0:0:45.971,126.685,7.17055,0,0.000885,0,0
0:0:46.569,130.32,7.37739,0,0.000885,0,0
0:0:47.167,132.784,7.51529,0,0.000885,0,0
0:0:47.766,135.133,7.64629,0,0.000885,0,0
0:0:48.363,137.77,7.79797,0,0.000885,0,0
0:0:48.962,140.115,7.92897,0,0.000885,0,0
0:0:49.572,143.344,8.10823,0,0.000885,0,0
0:0:50.177,145.924,8.25992,0,0.000885,0,0
0:0:50.776,148.971,8.43229,0,0.000885,0,0
0:0:51.373,150.906,8.5426,0,0.000885,0,0
0:0:51.972,153.312,8.6736,0,0.000885,0,0
0:0:52.569,155.835,8.81839,0,0.000885,0,0
0:0:53.167,158.708,8.98387,0,0.000885,0,0
0:0:53.770,161.697,9.14934,0,0.000885,0,0
0:0:54.379,163.988,9.28034,0,0.000885,0,0
0:0:54.986,167.271,9.4665,0,0.000885,0,0
0:0:55.583,169.557,9.5975,0,0.000885,0,0
0:0:56.180,172.2,9.74229,0,0.000885,0,0
0:0:56.776,174.837,9.89398,0,0.000885,0,0
0:0:57.373,177.417,10.0388,0,0.000885,0,0
0:0:57.973,180.349,10.2042,0,0.000885,0,0
0:0:58.571,183.049,10.3559,0,0.000885,0,0
0:0:59.179,185.393,10.4938,0,0.000885,0,0
0:0:59.786,188.267,10.6524,0,0.000885,0,0
0:1:0.389,190.557,10.7834,0,0.000885,0,0
0:1:0.982,193.431,10.9489,0,0.000885,0,0
0:1:1.577,195.891,11.0868,0,0.000885,0,0
0:1:2.170,198.649,11.2385,0,0.000885,0,0
0:1:2.765,201.171,11.3832,0,0.000885,0,0
0:1:3.359,204.222,11.5556,0,0.000885,0,0
0:1:3.953,206.393,11.6797,0,0.000885,0,0
0:1:4.558,209.267,11.8452,0,0.000885,0,0
0:1:5.159,212.14,12.0038,0,0.000885,0,0
0:1:5.755,215.014,12.1692,0,0.000885,0,0
0:1:6.349,217.536,12.3071,0,0.000885,0,0
0:1:6.943,219.88,12.445,0,0.000885,0,0
0:1:7.533,222.166,12.5691,0,0.000885,0,0
0:1:8.125,224.631,12.7139,0,0.000885,0,0
0:1:8.718,227.211,12.8587,0,0.000885,0,0
0:1:9.324,230.262,13.0311,0,0.000885,0,0
0:1:9.926,233.194,13.1966,0,0.000885,0,0
0:1:10.526,235.836,13.3483,0,0.000885,0,0
0:1:11.129,238.416,13.493,0,0.000885,0,0
0:1:11.727,240.644,13.6171,0,0.000885,0,0
0:1:12.322,243.46,13.7757,0,0.000885,0,0
0:1:12.916,245.862,13.9136,0,0.000885,0,0
0:1:13.511,249.029,14.0929,0,0.000885,0,0
0:1:14.114,251.2,14.217,0,0.000885,0,0
0:1:14.716,254.834,14.4238,0,0.000885,0,0
0:1:15.314,256.947,14.541,0,0.000885,0,0
0:1:15.907,259.176,14.6651,0,0.000885,0,0
0:1:16.501,261.756,14.8099,0,0.000885,0,0
0:1:17.096,264.162,14.9478,0,0.000885,0,0
0:1:17.689,267.329,15.1271,0,0.000885,0,0
0:1:18.281,269.38,15.2443,0,0.000885,0,0
0:1:18.881,272.138,15.4029,0,0.000885,0,0
0:1:19.484,275.069,15.5684,0,0.000885,0,0
0:1:20.088,277.533,15.7063,0,0.000885,0,0
0:1:20.682,280.936,15.8993,0,0.000885,0,0
0:1:21.274,282.987,16.0165,0,0.000885,0,0
0:1:21.867,286.096,16.1889,0,0.000885,0,0
0:1:22.458,288.209,16.3061,0,0.000885,0,0
0:1:23.053,290.847,16.4578,0,0.000885,0,0
0:1:23.647,293.663,16.6164,0,0.000885,0,0
0:1:24.252,296.363,16.768,0,0.000885,0,0
0:1:24.853,299.001,16.9197,0,0.000885,0,0
0:1:25.449,301.407,17.0576,0,0.000885,0,0
0:1:26.041,303.636,17.1817,0,0.000885,0,0
0:1:26.634,306.861,17.3679,0,0.000885,0,0
0:1:27.238,309.205,17.4989,0,0.000885,0,0
0:1:27.831,312.959,17.7126,0,0.000885,0,0
0:1:28.424,315.13,17.8298,0,0.000885,0,0
0:1:29.024,317.416,17.9608,0,0.000885,0,0
0:1:29.627,320.054,18.1125,0,0.000885,0,0
0:1:30.228,322.051,18.2228,0,0.000885,0,0
0:1:30.832,325.392,18.4159,0,0.000885,0,0
0:1:31.425,327.447,18.5262,0,0.000885,0,0
0:1:32.015,330.494,18.7055,0,0.000885,0,0
0:1:32.608,333.016,18.8434,0,0.000885,0,0
0:1:33.204,335.716,18.9951,0,0.000885,0,0
0:1:33.808,338.59,19.1605,0,0.000885,0,0
0:1:34.410,341.17,19.3053,0,0.000885,0,0
0:1:35.010,343.75,19.4501,0,0.000885,0,0
0:1:35.601,346.392,19.6018,0,0.000885,0,0
0:1:36.195,349.03,19.7535,0,0.000885,0,0
0:1:36.791,351.725,19.9052,0,0.000885,0,0
0:1:37.386,353.723,20.0155,0,0.000885,0,0
0:1:37.978,357.063,20.2085,0,0.000885,0,0
0:1:38.574,359.585,20.3464,0,0.000885,0,0
0:1:39.180,362.517,20.5119,0,0.000885,0,0
0:1:39.781,364.394,20.6222,0,0.000885,0,0
0:1:40.378,367.561,20.8015,0,0.000885,0,0
0:1:40.972,370.377,20.9601,0,0.000885,0,0
0:1:41.564,372.605,21.0842,0,0.000885,0,0
0:1:42.157,375.479,21.2496,0,0.000885,0,0
0:1:42.750,377.65,21.3737,0,0.000885,0,0
0:1:43.354,380.114,21.5116,0,0.000885,0,0
0:1:43.958,383.632,21.7116,0,0.000885,0,0
0:1:44.561,385.861,21.8357,0,0.000885,0,0
0:1:45.161,389.028,22.015,0,0.000885,0,0
0:1:45.751,391.257,22.1391,0,0.000885,0,0
0:1:46.354,394.25,22.3114,0,0.000885,0,0
0:1:46.947,396.127,22.4149,0,0.000885,0,0
0:1:47.541,398.53,22.5528,0,0.000885,0,0
0:1:48.143,401.697,22.732,0,0.000885,0,0
0:1:48.738,404.103,22.8699,0,0.000885,0,0
0:1:49.343,407.386,23.0561,0,0.000885,0,0
0:1:49.943,409.908,23.194,0,0.000885,0,0
0:1:50.538,411.901,23.3112,0,0.000885,0,0
0:1:51.152,415.13,23.4904,0,0.000885,0,0
0:1:51.745,417.297,23.6145,0,0.000885,0,0
0:1:52.349,420.464,23.7938,0,0.000885,0,0
0:1:52.949,422.87,23.9317,0,0.000885,0,0
0:1:53.543,425.802,24.0972,0,0.000885,0,0
0:1:54.144,427.914,24.2144,0,0.000885,0,0
0:1:54.751,431.375,24.4074,0,0.000885,0,0
0:1:55.351,433.31,24.5178,0,0.000885,0,0
0:1:55.951,435.89,24.6694,0,0.000885,0,0
0:1:56.553,438.942,24.8418,0,0.000885,0,0
0:1:57.143,441.17,24.9659,0,0.000885,0,0
0:1:57.738,444.747,25.1659,0,0.000885,0,0
0:1:58.353,447.091,25.2969,0,0.000885,0,0
0:1:58.957,449.675,25.4485,0,0.000885,0,0
0:1:59.559,452.135,25.5864,0,0.000885,0,0
0:2:0.155,454.599,25.7243,0,0.000885,0,0
0:2:0.746,457.651,25.8967,0,0.000885,0,0
0:2:1.340,459.759,26.0139,0,0.000885,0,0
0:2:1.936,462.869,26.1932,0,0.000885,0,0
0:2:2.540,464.866,26.3035,0,0.000885,0,0
0:2:3.141,468.616,26.5172,0,0.000885,0,0
0:2:3.738,470.671,26.6344,0,0.000885,0,0
0:2:4.343,473.429,26.793,0,0.000885,0,0
0:2:4.942,476.066,26.9378,0,0.000885,0,0
0:2:5.546,478.059,27.055,0,0.000885,0,0
0:2:6.140,480.817,27.2067,0,0.000885,0,0
0:2:6.733,483.575,27.3653,0,0.000885,0,0
0:2:7.324,486.564,27.5308,0,0.000885,0,0
0:2:7.916,489.029,27.6756,0,0.000885,0,0
0:2:8.510,491.373,27.8066,0,0.000885,0,0
0:2:9.114,494.304,27.972,0,0.000885,0,0
0:2:9.716,496.889,28.1168,0,0.000885,0,0
0:2:10.317,500.229,28.3099,0,0.000885,0,0
0:2:10.909,502.222,28.4202,0,0.000885,0,0
0:2:11.501,504.806,28.565,0,0.000885,0,0
0:2:12.094,507.738,28.7305,0,0.000885,0,0
0:2:12.690,510.433,28.8821,0,0.000885,0,0
0:2:13.283,512.898,29.0269,0,0.000885,0,0
0:2:13.889,515.304,29.1579,0,0.000885,0,0
0:2:14.491,517.826,29.3027,0,0.000885,0,0
0:2:15.087,520.464,29.4544,0,0.000885,0,0
0:2:15.679,522.635,29.5785,0,0.000885,0,0
0:2:16.274,525.918,29.7578,0,0.000885,0,0
0:2:16.869,528.382,29.9026,0,0.000885,0,0
0:2:17.462,531.371,30.068,0,0.000885,0,0
0:2:18.055,533.426,30.1852,0,0.000885,0,0
0:2:18.651,535.948,30.33,0,0.000885,0,0
0:2:19.257,538.764,30.4886,0,0.000885,0,0
0:2:19.856,541.58,30.6472,0,0.000885,0,0
0:2:20.461,544.863,30.8334,0,0.000885,0,0
0:2:21.053,546.918,30.9506,0,0.000885,0,0
0:2:21.644,549.44,31.0885,0,0.000885,0,0
0:2:22.246,552.487,31.2677,0,0.000885,0,0
0:2:22.846,554.128,31.3574,0,0.000885,0,0
0:2:23.453,557.002,31.5228,0,0.000885,0,0
0:2:24.058,559.702,31.6745,0,0.000885,0,0
0:2:24.660,562.166,31.8124,0,0.000885,0,0
0:2:25.260,564.275,31.9296,0,0.000885,0,0
0:2:25.849,566.975,32.0813,0,0.000885,0,0
0:2:26.452,568.794,32.1847,0,0.000885,0,0
0:2:27.044,570.96,32.3088,0,0.000885,0,0
0:2:27.638,572.78,32.4123,0,0.000885,0,0
0:2:28.252,574.835,32.5295,0,0.000885,0,0
0:2:28.856,575.538,32.5708,0,0.000885,0,0
0:2:29.455,574.541,32.5157,0,0.000885,0,0
0:2:30.057,567.913,32.1365,0,0.000885,0,0
0:2:30.647,555.89,31.4539,0,0.000885,0,0
0:2:31.252,542.167,30.6817,0,0.000885,0,0
0:2:31.854,515.011,29.1441,0,0.000885,0,0
0:2:32.453,497.534,28.1513,0,0.000885,0,0
0:2:33.052,478.295,27.0688,0,0.000885,0,0
0:2:33.649,464.279,26.2759,0,0.000885,0,0
0:2:34.252,448.968,25.4072,0,0.000885,0,0
0:2:34.852,436.126,24.6763,0,0.000885,0,0
0:2:35.454,415.655,23.518,0,0.000885,0,0
0:2:35.985,404.045,22.863,0,0.000885,0,0