File: DataFile2021-07-18_080159.csv
Test ID:,Date Tested:,Time:,Test Type:,Diameter Avg. (mm):,Cyl. Corr. Factor:,Height (mm):,Age (days):,Weight (kN):,Break Type:,Ramp Rate (MPa/s):,Load at Break (kN):,Stress at Break (MPa):
12,7/18/2021,08:01,Cylinder,100,1,200,0,3.89,3,0.35,1156.12,147.2
Sample Time,Load (kN),Stress (MPa),Long. Strain,Trans. Strain,Chan1 Deflection (mm),Chan2 Deflection (mm)
0:0:13.821,6.57002,0.834266,0,0.000885,0,0
0:0:15.633,9.85281,1.25485,0,0.000885,0,0
0:0:17.437,14.7814,1.88227,0,0.000885,0,0
0:0:19.238,19.4699,2.48211,0,0.000885,0,0
0:0:21.052,25.7463,3.27501,0,0.000885,0,0
0:0:22.848,31.4356,4.00585,0,0.000885,0,0
0:0:24.644,35.1321,4.4747,0,0.000885,0,0
0:0:26.453,40.1763,5.11591,0,0.000885,0,0
0:0:28.244,45.0427,5.73644,0,0.000885,0,0
0:0:30.050,50.6163,6.4466,0,0.000885,0,0
0:0:31.852,54.4284,6.92923,0,0.000885,0,0
0:0:33.640,59.9398,7.6325,0,0.000885,0,0
0:0:35.453,64.517,8.21166,0,0.000885,0,0
0:0:37.250,69.6769,8.87355,0,0.000885,0,0
0:0:39.044,74.6634,9.50787,0,0.000885,0,0
0:0:40.858,80.0013,10.1836,0,0.000885,0,0
0:0:42.651,84.3961,10.7489,0,0.000885,0,0
0:0:44.451,90.0276,11.466,0,0.000885,0,0
0:0:46.256,94.1911,11.99,0,0.000885,0,0
0:0:48.047,99.6491,12.6864,0,0.000885,0,0
0:0:49.851,104.337,13.2862,0,0.000885,0,0
0:0:51.652,109.444,13.9343,0,0.000885,0,0
0:0:53.444,114.604,14.5893,0,0.000885,0,0
0:0:55.254,119.119,15.1685,0,0.000885,0,0
0:0:57.051,124.808,15.8924,0,0.000885,0,0
0:0:58.840,129.15,16.444,0,0.000885,0,0
0:1:0.658,134.31,17.099,0,0.000885,0,0
0:1:2.447,139.06,17.7057,0,0.000885,0,0
0:1:4.243,144.047,18.3401,0,0.000885,0,0
0:1:6.053,148.855,18.9537,0,0.000885,0,0
0:1:7.844,153.548,19.5535,0,0.000885,0,0
0:1:9.647,158.824,20.2223,0,0.000885,0,0
0:1:11.452,163.988,20.8773,0,0.000885,0,0
0:1:13.242,168.267,21.422,0,0.000885,0,0
0:1:15.046,173.721,22.1184,0,0.000885,0,0
0:1:16.847,178.472,22.7251,0,0.000885,0,0
0:1:18.638,183.867,23.4077,0,0.000885,0,0
0:1:20.461,188.796,24.0351,0,0.000885,0,0
0:1:22.250,193.662,24.6557,0,0.000885,0,0
0:1:24.037,197.768,25.1797,0,0.000885,0,0
0:1:25.840,203.457,25.9036,0,0.000885,0,0
0:1:27.638,208.386,26.531,0,0.000885,0,0
0:1:29.439,213.137,27.1378,0,0.000885,0,0
0:1:31.237,217.416,27.6825,0,0.000885,0,0
0:1:33.034,223.283,28.4271,0,0.000885,0,0
0:1:34.840,228.443,29.089,0,0.000885,0,0
0:1:36.645,232.9,29.6544,0,0.000885,0,0
0:1:38.441,238.064,30.3094,0,0.000885,0,0
0:1:40.250,242.637,30.8954,0,0.000885,0,0
0:1:42.041,247.503,31.5159,0,0.000885,0,0
0:1:43.839,253.251,32.2468,0,0.000885,0,0
0:1:45.648,257.886,32.8328,0,0.000885,0,0
0:1:47.445,263.046,33.4947,0,0.000885,0,0
0:1:49.239,267.445,34.0532,0,0.000885,0,0
0:1:51.041,272.489,34.6944,0,0.000885,0,0
0:1:52.845,277.533,35.3356,0,0.000885,0,0
0:1:54.633,282.284,35.9424,0,0.000885,0,0
0:1:56.441,287.506,36.6043,0,0.000885,0,0
0:1:58.240,292.195,37.2041,0,0.000885,0,0
0:2:0.050,297.59,37.8936,0,0.000885,0,0
0:2:1.845,302.283,38.4865,0,0.000885,0,0
0:2:3.635,307.328,39.1277,0,0.000885,0,0
0:2:5.444,312.078,39.7345,0,0.000885,0,0
0:2:7.246,317.594,40.4378,0,0.000885,0,0
0:2:9.047,322.167,41.0169,0,0.000885,0,0
0:2:10.845,326.74,41.603,0,0.000885,0,0
0:2:12.646,332.255,42.3062,0,0.000885,0,0
0:2:14.442,336.891,42.8923,0,0.000885,0,0
0:2:16.247,341.993,43.5404,0,0.000885,0,0
0:2:18.041,346.859,44.1609,0,0.000885,0,0
0:2:19.845,352.019,44.8228,0,0.000885,0,0
0:2:21.643,356.654,45.4089,0,0.000885,0,0
0:2:23.444,362.05,46.0983,0,0.000885,0,0
0:2:25.247,366.743,46.6982,0,0.000885,0,0
0:2:27.044,371.2,47.2636,0,0.000885,0,0
0:2:28.836,376.947,47.9944,0,0.000885,0,0
0:2:30.644,381.288,48.546,0,0.000885,0,0
0:2:32.447,386.448,49.201,0,0.000885,0,0
0:2:34.248,391.492,49.8491,0,0.000885,0,0
0:2:36.048,396.301,50.4558,0,0.000885,0,0
0:2:37.839,401.461,51.1177,0,0.000885,0,0
0:2:39.644,406.447,51.752,0,0.000885,0,0
0:2:41.450,411.434,52.3864,0,0.000885,0,0
0:2:43.244,415.949,52.9586,0,0.000885,0,0
0:2:45.045,420.815,53.5792,0,0.000885,0,0
0:2:46.833,426.273,54.2755,0,0.000885,0,0
0:2:48.646,430.846,54.8547,0,0.000885,0,0
0:2:50.455,435.597,55.4614,0,0.000885,0,0
0:2:52.246,440.877,56.1371,0,0.000885,0,0
0:2:54.050,445.569,56.7301,0,0.000885,0,0
0:2:55.858,450.378,57.3437,0,0.000885,0,0
0:2:57.641,455.716,58.0263,0,0.000885,0,0
0:2:59.443,460.818,58.6744,0,0.000885,0,0
0:3:1.245,465.333,59.2466,0,0.000885,0,0
0:3:3.046,470.729,59.9361,0,0.000885,0,0
0:3:4.849,475.186,60.5015,0,0.000885,0,0
0:3:6.646,480.346,61.1565,0,0.000885,0,0
0:3:8.444,485.51,61.8184,0,0.000885,0,0
0:3:10.242,490.67,62.4734,0,0.000885,0,0
0:3:12.044,494.891,63.0112,0,0.000885,0,0
0:3:13.841,500.229,63.6938,0,0.000885,0,0
0:3:15.643,505.451,64.3557,0,0.000885,0,0
0:3:17.452,509.909,64.921,0,0.000885,0,0
0:3:19.244,514.833,65.5485,0,0.000885,0,0
0:3:21.043,519.704,66.169,0,0.000885,0,0
0:3:22.842,524.863,66.8309,0,0.000885,0,0
0:3:24.639,529.908,67.4721,0,0.000885,0,0
0:3:26.444,534.832,68.0995,0,0.000885,0,0
0:3:28.242,539.996,68.7545,0,0.000885,0,0
0:3:30.054,544.511,69.3268,0,0.000885,0,0
0:3:31.844,549.791,70.0025,0,0.000885,0,0
0:3:33.653,554.836,70.6437,0,0.000885,0,0
0:3:35.454,559.23,71.2022,0,0.000885,0,0
0:3:37.253,564.337,71.8503,0,0.000885,0,0
0:3:39.050,569.377,72.4984,0,0.000885,0,0
0:3:40.853,574.07,73.0913,0,0.000885,0,0
0:3:42.651,579.234,73.7532,0,0.000885,0,0
0:3:44.442,584.274,74.3944,0,0.000885,0,0
0:3:46.257,589.616,75.0701,0,0.000885,0,0
0:3:48.043,593.962,75.6286,0,0.000885,0,0
0:3:49.868,599.127,76.2836,0,0.000885,0,0
0:3:51.663,604.411,76.9524,0,0.000885,0,0
0:3:53.456,609.162,77.5591,0,0.000885,0,0
0:3:55.266,614.504,78.2417,0,0.000885,0,0
0:3:57.054,618.792,78.7864,0,0.000885,0,0
0:3:58.853,624.486,79.5103,0,0.000885,0,0
0:4:0.663,628.712,80.0481,0,0.000885,0,0
0:4:2.454,634.348,80.7652,0,0.000885,0,0
0:4:4.257,638.983,81.3581,0,0.000885,0,0
0:4:6.071,643.444,81.9235,0,0.000885,0,0
0:4:7.859,648.551,82.5785,0,0.000885,0,0
0:4:9.661,653.542,83.2128,0,0.000885,0,0
0:4:11.459,658.822,83.8816,0,0.000885,0,0
0:4:13.257,663.168,84.4401,0,0.000885,0,0
0:4:15.056,668.568,85.1227,0,0.000885,0,0
0:4:16.851,673.145,85.7087,0,0.000885,0,0
0:4:18.642,677.958,86.3224,0,0.000885,0,0
0:4:20.451,683.594,87.0394,0,0.000885,0,0
0:4:22.250,688.233,87.6255,0,0.000885,0,0
0:4:24.050,692.868,88.2184,0,0.000885,0,0
0:4:25.860,698.562,88.9424,0,0.000885,0,0
0:4:27.646,702.788,89.4802,0,0.000885,0,0
0:4:29.447,707.894,90.1352,0,0.000885,0,0
0:4:31.256,713.121,90.7971,0,0.000885,0,0
0:4:33.049,718.17,91.4383,0,0.000885,0,0
0:4:34.862,722.747,92.0243,0,0.000885,0,0
0:4:36.660,728.147,92.7138,0,0.000885,0,0
0:4:38.448,732.845,93.3068,0,0.000885,0,0
0:4:40.268,737.422,93.8928,0,0.000885,0,0
0:4:42.066,742.706,94.5616,0,0.000885,0,0
0:4:43.860,747.986,95.2373,0,0.000885,0,0
0:4:45.675,752.506,95.8095,0,0.000885,0,0
0:4:47.459,757.203,96.4094,0,0.000885,0,0
0:4:49.267,762.661,97.1058,0,0.000885,0,0
0:4:51.076,767.123,97.6711,0,0.000885,0,0
0:4:52.866,771.935,98.2848,0,0.000885,0,0
0:4:54.661,777.456,98.988,0,0.000885,0,0
0:4:56.465,782.384,99.6155,0,0.000885,0,0
0:4:58.255,787.375,100.25,0,0.000885,0,0
0:5:0.066,792.304,100.877,0,0.000885,0,0
0:5:1.852,797.001,101.477,0,0.000885,0,0
0:5:3.665,801.756,102.084,0,0.000885,0,0
0:5:5.474,807.272,102.787,0,0.000885,0,0
0:5:7.266,811.676,103.346,0,0.000885,0,0
0:5:9.046,816.547,103.966,0,0.000885,0,0
0:5:10.865,821.595,104.607,0,0.000885,0,0
0:5:12.657,827.525,105.366,0,0.000885,0,0
0:5:14.456,831.809,105.91,0,0.000885,0,0
0:5:16.266,836.27,106.476,0,0.000885,0,0
0:5:18.069,841.612,107.158,0,0.000885,0,0
0:5:19.872,846.777,107.813,0,0.000885,0,0
0:5:21.668,851.474,108.413,0,0.000885,0,0
0:5:23.449,856.171,109.013,0,0.000885,0,0
0:5:25.258,861.572,109.696,0,0.000885,0,0
0:5:27.056,866.207,110.289,0,0.000885,0,0
0:5:28.857,871.198,110.923,0,0.000885,0,0
0:5:30.666,876.362,111.585,0,0.000885,0,0
0:5:32.452,881.353,112.219,0,0.000885,0,0
0:5:34.258,885.636,112.764,0,0.000885,0,0
0:5:36.070,891.152,113.467,0,0.000885,0,0
0:5:37.862,896.201,114.108,0,0.000885,0,0
0:5:39.663,900.72,114.68,0,0.000885,0,0
0:5:41.463,906.183,115.377,0,0.000885,0,0
0:5:43.256,911.111,116.004,0,0.000885,0,0
0:5:45.065,915.689,116.59,0,0.000885,0,0
0:5:46.855,920.502,117.204,0,0.000885,0,0
0:5:48.653,925.906,117.887,0,0.000885,0,0
0:5:50.463,930.777,118.507,0,0.000885,0,0
0:5:52.267,936.057,119.183,0,0.000885,0,0
0:5:54.067,940.167,119.707,0,0.000885,0,0
0:5:55.883,945.687,120.41,0,0.000885,0,0
0:5:57.670,950.732,121.051,0,0.000885,0,0
0:5:59.457,955.665,121.679,0,0.000885,0,0
0:6:1.268,960.42,122.285,0,0.000885,0,0
0:6:3.061,965.7,122.954,0,0.000885,0,0
0:6:4.855,969.93,123.492,0,0.000885,0,0
0:6:6.658,975.446,124.195,0,0.000885,0,0
0:6:8.454,980.023,124.781,0,0.000885,0,0
0:6:10.262,985.308,125.45,0,0.000885,0,0
0:6:12.062,990.299,126.091,0,0.000885,0,0
0:6:13.849,995.285,126.726,0,0.000885,0,0
0:6:15.658,999.925,127.312,0,0.000885,0,0
0:6:17.467,1004.91,127.953,0,0.000885,0,0
0:6:19.260,1009.9,128.587,0,0.000885,0,0
0:6:21.076,1014.48,129.166,0,0.000885,0,0
0:6:22.860,1019.76,129.842,0,0.000885,0,0
0:6:24.672,1024.81,130.483,0,0.000885,0,0
0:6:26.468,1029.1,131.028,0,0.000885,0,0
0:6:28.264,1034.97,131.779,0,0.000885,0,0
0:6:30.064,1039.78,132.386,0,0.000885,0,0
0:6:31.871,1044.18,132.952,0,0.000885,0,0
0:6:33.653,1049.64,133.648,0,0.000885,0,0
0:6:35.460,1054.51,134.262,0,0.000885,0,0
0:6:37.272,1058.8,134.813,0,0.000885,0,0
0:6:39.070,1064.08,135.482,0,0.000885,0,0
0:6:40.881,1069.66,136.192,0,0.000885,0,0
0:6:42.669,1074.24,136.778,0,0.000885,0,0
0:6:44.460,1078.88,137.364,0,0.000885,0,0
0:6:46.275,1084.51,138.081,0,0.000885,0,0
0:6:48.067,1089.03,138.66,0,0.000885,0,0
0:6:49.880,1094.02,139.295,0,0.000885,0,0
0:6:51.680,1099.36,139.977,0,0.000885,0,0
0:6:53.467,1103.88,140.55,0,0.000885,0,0
0:6:55.268,1108.75,141.17,0,0.000885,0,0
0:6:57.063,1113.68,141.798,0,0.000885,0,0
0:6:58.858,1118.73,142.439,0,0.000885,0,0
0:7:0.674,1123.07,142.997,0,0.000885,0,0
0:7:2.479,1128.53,143.687,0,0.000885,0,0
0:7:4.267,1133.76,144.356,0,0.000885,0,0
0:7:6.075,1138.63,144.976,0,0.000885,0,0
0:7:7.861,1142.92,145.521,0,0.000885,0,0
0:7:9.662,1148.02,146.169,0,0.000885,0,0
0:7:11.467,1153.42,146.858,0,0.000885,0,0
0:7:12.636,1156.48,147.244,0,0.000885,0,0