File: DataFile2021-07-15_054222.csv
Test ID:,Date Tested:,Time:,Test Type:,Diameter Avg. (mm):,Cyl. Corr. Factor:,Height (mm):,Age (days):,Weight (kN):,Break Type:,Ramp Rate (MPa/s):,Load at Break (kN):,Stress at Break (MPa):
12,7/15/2021,05:42,Cylinder,150,1,300,0,3.6,3,0.25,1725.98,97.67
Sample Time,Load (kN),Stress (MPa),Long. Strain,Trans. Strain,Chan1 Deflection (mm),Chan2 Deflection (mm)
0:0:8.692,6.5122,0.365422,0,0.000885,0,0
0:0:10.386,12.7842,0.72395,0,0.000885,0,0
0:0:12.074,19.2386,1.08937,0,0.000885,0,0
0:0:13.764,26.9206,1.52374,0,0.000885,0,0
0:0:15.481,33.6063,1.90295,0,0.000885,0,0
0:0:17.175,40.8213,2.30974,0,0.000885,0,0
0:0:18.865,49.9713,2.82685,0,0.000885,0,0
0:0:20.584,56.9506,3.21985,0,0.000885,0,0
0:0:22.276,66.6255,3.77143,0,0.000885,0,0
0:0:23.968,75.0726,4.24717,0,0.000885,0,0
0:0:25.688,80.1169,4.53675,0,0.000885,0,0
0:0:27.380,87.6833,4.96423,0,0.000885,0,0
0:0:29.075,96.4197,5.45375,0,0.000885,0,0
0:0:30.791,102.874,5.81918,0,0.000885,0,0
0:0:32.483,110.089,6.23286,0,0.000885,0,0
0:0:34.182,118.296,6.69481,0,0.000885,0,0
0:0:35.892,125.862,7.12228,0,0.000885,0,0
0:0:37.586,132.784,7.51529,0,0.000885,0,0
0:0:39.284,140.644,7.95655,0,0.000885,0,0
0:0:40.994,148.268,8.39092,0,0.000885,0,0
0:0:42.688,155.599,8.80461,0,0.000885,0,0
0:0:44.384,163.107,9.23208,0,0.000885,0,0
0:0:46.097,170.732,9.65955,0,0.000885,0,0
0:0:47.791,178.472,10.1008,0,0.000885,0,0
0:0:49.496,186.332,10.5421,0,0.000885,0,0
0:0:51.195,193.369,10.942,0,0.000885,0,0
0:0:52.878,200.935,11.3695,0,0.000885,0,0
0:0:54.569,208.092,11.7762,0,0.000885,0,0
0:0:56.257,215.832,12.2106,0,0.000885,0,0
0:0:57.959,223.456,12.645,0,0.000885,0,0
0:0:59.661,230.965,13.0725,0,0.000885,0,0
0:1:1.351,238.296,13.4861,0,0.000885,0,0
0:1:3.047,245.689,13.8998,0,0.000885,0,0
0:1:4.752,252.961,14.3135,0,0.000885,0,0
0:1:6.455,260.408,14.7341,0,0.000885,0,0
0:1:8.159,268.268,15.1823,0,0.000885,0,0
0:1:9.860,275.363,15.5822,0,0.000885,0,0
0:1:11.558,283.107,16.0234,0,0.000885,0,0
0:1:13.253,291.141,16.4785,0,0.000885,0,0
0:1:14.951,298.24,16.8784,0,0.000885,0,0
0:1:16.657,305.219,17.2714,0,0.000885,0,0
0:1:18.354,312.665,17.6919,0,0.000885,0,0
0:1:20.064,320.935,18.1608,0,0.000885,0,0
0:1:21.749,328.15,18.5676,0,0.000885,0,0
0:1:23.459,335.952,19.0088,0,0.000885,0,0
0:1:25.160,342.931,19.4087,0,0.000885,0,0
0:1:26.854,350.378,19.8293,0,0.000885,0,0
0:1:28.561,357.886,20.2499,0,0.000885,0,0
0:1:30.264,365.684,20.6912,0,0.000885,0,0
0:1:31.956,373.486,21.1324,0,0.000885,0,0
0:1:33.654,380.995,21.5599,0,0.000885,0,0
0:1:35.364,388.09,21.9598,0,0.000885,0,0
0:1:37.056,395.714,22.3942,0,0.000885,0,0
0:1:38.757,403.632,22.8423,0,0.000885,0,0
0:1:40.465,410.38,23.2215,0,0.000885,0,0
0:1:42.159,418.88,23.7042,0,0.000885,0,0
0:1:43.861,426.504,24.1385,0,0.000885,0,0
0:1:45.561,433.017,24.504,0,0.000885,0,0
0:1:47.258,441.401,24.9797,0,0.000885,0,0
0:1:48.949,448.443,25.3796,0,0.000885,0,0
0:1:50.656,456.183,25.814,0,0.000885,0,0
0:1:52.361,463.34,26.2208,0,0.000885,0,0
0:1:54.062,470.729,26.6344,0,0.000885,0,0
0:1:55.768,478.704,27.0895,0,0.000885,0,0
0:1:57.464,486.329,27.5239,0,0.000885,0,0
0:1:59.165,493.544,27.9307,0,0.000885,0,0
0:2:0.862,501.168,28.3581,0,0.000885,0,0
0:2:2.558,508.912,28.7994,0,0.000885,0,0
0:2:4.259,515.304,29.1579,0,0.000885,0,0
0:2:5.952,523.396,29.6199,0,0.000885,0,0
0:2:7.652,531.256,30.0611,0,0.000885,0,0
0:2:9.368,538.177,30.4541,0,0.000885,0,0
0:2:11.068,546.446,30.923,0,0.000885,0,0
0:2:12.759,553.897,31.3436,0,0.000885,0,0
0:2:14.462,560.347,31.709,0,0.000885,0,0
0:2:16.161,567.793,32.1296,0,0.000885,0,0
0:2:17.862,576.24,32.6053,0,0.000885,0,0
0:2:19.562,583.749,33.0328,0,0.000885,0,0
0:2:21.252,591.022,33.4465,0,0.000885,0,0
0:2:22.962,599.006,33.8946,0,0.000885,0,0
0:2:24.672,605.403,34.26,0,0.000885,0,0
0:2:26.368,613.565,34.722,0,0.000885,0,0
0:2:28.059,620.256,35.1012,0,0.000885,0,0
0:2:29.770,628.707,35.5769,0,0.000885,0,0
0:2:31.466,635.927,35.9837,0,0.000885,0,0
0:2:33.154,643.324,36.4043,0,0.000885,0,0
0:2:34.871,651.954,36.8938,0,0.000885,0,0
0:2:36.562,658.995,37.2937,0,0.000885,0,0
0:2:38.262,666.099,37.6936,0,0.000885,0,0
0:2:39.968,673.67,38.1211,0,0.000885,0,0
0:2:41.657,681.067,38.5417,0,0.000885,0,0
0:2:43.362,688.522,38.9623,0,0.000885,0,0
0:2:45.077,695.506,39.3553,0,0.000885,0,0
0:2:46.769,704.251,39.8517,0,0.000885,0,0
0:2:48.457,711.707,40.2723,0,0.000885,0,0
0:2:50.175,718.988,40.686,0,0.000885,0,0
0:2:51.867,725.914,41.079,0,0.000885,0,0
0:2:53.556,733.721,41.5202,0,0.000885,0,0
0:2:55.266,740.94,41.927,0,0.000885,0,0
0:2:56.966,748.395,42.3476,0,0.000885,0,0
0:2:58.667,756.789,42.8233,0,0.000885,0,0
0:3:0.380,764.067,43.237,0,0.000885,0,0
0:3:2.073,771.758,43.6714,0,0.000885,0,0
0:3:3.763,778.51,44.0575,0,0.000885,0,0
0:3:5.469,786.61,44.5126,0,0.000885,0,0
0:3:7.158,793.945,44.9262,0,0.000885,0,0
0:3:8.857,801.516,45.3537,0,0.000885,0,0
0:3:10.569,809.443,45.8019,0,0.000885,0,0
0:3:12.265,815.666,46.1604,0,0.000885,0,0
0:3:13.974,824.295,46.643,0,0.000885,0,0
0:3:15.684,831.043,47.0291,0,0.000885,0,0
0:3:17.371,839.086,47.4842,0,0.000885,0,0
0:3:19.059,846.421,47.8979,0,0.000885,0,0
0:3:20.774,853.996,48.3254,0,0.000885,0,0
0:3:22.457,860.98,48.7184,0,0.000885,0,0
0:3:24.167,868.493,49.1458,0,0.000885,0,0
0:3:25.883,876.829,49.6216,0,0.000885,0,0
0:3:27.566,884.048,50.0284,0,0.000885,0,0
0:3:29.260,892.091,50.4834,0,0.000885,0,0
0:3:30.969,897.962,50.8144,0,0.000885,0,0
0:3:32.660,906.766,51.3108,0,0.000885,0,0
0:3:34.366,913.691,51.7038,0,0.000885,0,0
0:3:36.072,921.44,52.145,0,0.000885,0,0
0:3:37.769,928.953,52.5656,0,0.000885,0,0
0:3:39.470,936.76,53.0069,0,0.000885,0,0
0:3:41.177,944.157,53.4275,0,0.000885,0,0
0:3:42.874,951.377,53.8343,0,0.000885,0,0
0:3:44.575,959.361,54.2893,0,0.000885,0,0
0:3:46.273,967.168,54.7306,0,0.000885,0,0
0:3:47.971,973.507,55.0891,0,0.000885,0,0
0:3:49.669,982.252,55.5855,0,0.000885,0,0
0:3:51.362,989.178,55.9785,0,0.000885,0,0
0:3:53.072,996.753,56.406,0,0.000885,0,0
0:3:54.772,1003.79,56.8059,0,0.000885,0,0
0:3:56.468,1012.31,57.2816,0,0.000885,0,0
0:3:58.164,1018.76,57.6471,0,0.000885,0,0
0:3:59.875,1026.45,58.0883,0,0.000885,0,0
0:4:1.564,1034.55,58.5434,0,0.000885,0,0
0:4:3.263,1041.66,58.9433,0,0.000885,0,0
0:4:4.981,1050.28,59.4328,0,0.000885,0,0
0:4:6.673,1056.45,59.7844,0,0.000885,0,0
0:4:8.359,1063.96,60.205,0,0.000885,0,0
0:4:10.078,1072.06,60.667,0,0.000885,0,0
0:4:11.774,1079.11,61.0669,0,0.000885,0,0
0:4:13.456,1086.74,61.4943,0,0.000885,0,0
0:4:15.164,1094.37,61.9287,0,0.000885,0,0
0:4:16.859,1101.82,62.3493,0,0.000885,0,0
0:4:18.563,1108.81,62.7423,0,0.000885,0,0
0:4:20.276,1116.32,63.1698,0,0.000885,0,0
0:4:21.964,1124.13,63.611,0,0.000885,0,0
0:4:23.659,1131.99,64.0592,0,0.000885,0,0
0:4:25.370,1139.39,64.4729,0,0.000885,0,0
0:4:27.059,1147.2,64.921,0,0.000885,0,0
0:4:28.757,1154.12,65.3071,0,0.000885,0,0
0:4:30.466,1162.46,65.7829,0,0.000885,0,0
0:4:32.168,1169.38,66.1759,0,0.000885,0,0
0:4:33.866,1175.96,66.5482,0,0.000885,0,0
0:4:35.576,1184.82,67.0446,0,0.000885,0,0
0:4:37.276,1191.16,67.4031,0,0.000885,0,0
0:4:38.974,1199.5,67.8789,0,0.000885,0,0
0:4:40.684,1206.83,68.2926,0,0.000885,0,0
0:4:42.370,1214.17,68.7063,0,0.000885,0,0
0:4:44.070,1221.74,69.1337,0,0.000885,0,0
0:4:45.784,1228.79,69.5336,0,0.000885,0,0
0:4:47.468,1237.13,70.0094,0,0.000885,0,0
0:4:49.179,1244.29,70.4093,0,0.000885,0,0
0:4:50.892,1252.56,70.8781,0,0.000885,0,0
0:4:52.576,1259.43,71.2711,0,0.000885,0,0
0:4:54.276,1267.47,71.7262,0,0.000885,0,0
0:4:55.980,1274.05,72.0985,0,0.000885,0,0
0:4:57.682,1281.74,72.5328,0,0.000885,0,0
0:4:59.381,1289.66,72.981,0,0.000885,0,0
0:5:1.085,1297.35,73.4154,0,0.000885,0,0
0:5:2.769,1304.57,73.8222,0,0.000885,0,0
0:5:4.464,1312.14,74.2496,0,0.000885,0,0
0:5:6.170,1319.54,74.6702,0,0.000885,0,0
0:5:7.857,1326.76,75.077,0,0.000885,0,0
0:5:9.569,1334.45,75.5114,0,0.000885,0,0
0:5:11.265,1342.02,75.9458,0,0.000885,0,0
0:5:12.954,1349.07,76.3388,0,0.000885,0,0
0:5:14.671,1357.34,76.8076,0,0.000885,0,0
0:5:16.371,1364.68,77.2282,0,0.000885,0,0
0:5:18.079,1372.07,77.6419,0,0.000885,0,0
0:5:19.783,1380.23,78.1038,0,0.000885,0,0
0:5:21.478,1386.69,78.4692,0,0.000885,0,0
0:5:23.174,1394.79,78.9312,0,0.000885,0,0
0:5:24.881,1402.3,79.3518,0,0.000885,0,0
0:5:26.577,1409.76,79.7792,0,0.000885,0,0
0:5:28.273,1417.39,80.2067,0,0.000885,0,0
0:5:29.980,1424.85,80.6273,0,0.000885,0,0
0:5:31.688,1432.24,81.0479,0,0.000885,0,0
0:5:33.383,1439.34,81.4478,0,0.000885,0,0
0:5:35.088,1447.5,81.9097,0,0.000885,0,0
0:5:36.788,1454.84,82.3303,0,0.000885,0,0
0:5:38.482,1462.47,82.7578,0,0.000885,0,0
0:5:40.187,1470.1,83.1921,0,0.000885,0,0
0:5:41.887,1476.91,83.5782,0,0.000885,0,0
0:5:43.569,1485.44,84.0609,0,0.000885,0,0
0:5:45.283,1492.69,84.4677,0,0.000885,0,0
0:5:46.980,1499.81,84.8745,0,0.000885,0,0
0:5:48.686,1506.88,85.2744,0,0.000885,0,0
0:5:50.398,1515.3,85.7501,0,0.000885,0,0
0:5:52.089,1522.25,86.1431,0,0.000885,0,0
0:5:53.776,1530.08,86.5844,0,0.000885,0,0
0:5:55.488,1538.26,87.0463,0,0.000885,0,0
0:5:57.175,1544.74,87.4117,0,0.000885,0,0
0:5:58.868,1552.51,87.853,0,0.000885,0,0
0:6:0.586,1559.87,88.2736,0,0.000885,0,0
0:6:2.274,1566.65,88.6528,0,0.000885,0,0
0:6:3.973,1574.77,89.1147,0,0.000885,0,0
0:6:5.684,1582.01,89.5215,0,0.000885,0,0
0:6:7.376,1590.26,89.9904,0,0.000885,0,0
0:6:9.064,1597.85,90.4178,0,0.000885,0,0
0:6:10.777,1605.1,90.8315,0,0.000885,0,0
0:6:12.470,1612.63,91.259,0,0.000885,0,0
0:6:14.160,1620.46,91.7003,0,0.000885,0,0
0:6:15.875,1627.47,92.0933,0,0.000885,0,0
0:6:17.577,1635.36,92.5414,0,0.000885,0,0
0:6:19.289,1642.96,92.9689,0,0.000885,0,0
0:6:20.992,1650.32,93.3895,0,0.000885,0,0
0:6:22.675,1657.91,93.817,0,0.000885,0,0
0:6:24.380,1665.1,94.2238,0,0.000885,0,0
0:6:26.086,1659.85,93.9273,0,0.000885,0,0
0:6:27.778,1677.4,94.9201,0,0.000885,0,0
0:6:29.473,1690,95.6372,0,0.000885,0,0
0:6:31.189,1696.72,96.0164,0,0.000885,0,0
0:6:32.886,1698.78,96.1336,0,0.000885,0,0
0:6:34.585,1705.84,96.5335,0,0.000885,0,0
0:6:36.280,1711.03,96.8231,0,0.000885,0,0
0:6:37.986,1712.61,96.9127,0,0.000885,0,0
0:6:39.687,1719.74,97.3195,0,0.000885,0,0
0:6:41.381,1725.33,97.6367,0,0.000885,0,0
0:6:41.855,1721.68,97.4298,0,0.000885,0,0