File: DataFile2021-07-15_051920.csv
Test ID:,Date Tested:,Time:,Test Type:,Diameter Avg. (mm):,Cyl. Corr. Factor:,Height (mm):,Age (days):,Weight (kN):,Break Type:,Ramp Rate (MPa/s):,Load at Break (kN):,Stress at Break (MPa):
12,7/15/2021,05:19,Cylinder,150,1,300,0,3.6,3,0.25,1824.43,103.24
Sample Time,Load (kN),Stress (MPa),Long. Strain,Trans. Strain,Chan1 Deflection (mm),Chan2 Deflection (mm)
0:0:5.943,5.10211,0.28958,0,0.000885,0,0
0:0:7.732,12.3171,0.69637,0,0.000885,0,0
0:0:9.520,19.8257,1.12385,0,0.000885,0,0
0:0:11.310,27.8592,1.5789,0,0.000885,0,0
0:0:13.127,35.7192,2.02016,0,0.000885,0,0
0:0:14.920,44.9849,2.54417,0,0.000885,0,0
0:0:16.727,54.722,3.09575,0,0.000885,0,0
0:0:18.527,60.4113,3.4198,0,0.000885,0,0
0:0:20.320,69.0898,3.90933,0,0.000885,0,0
0:0:22.128,76.1891,4.30922,0,0.000885,0,0
0:0:23.926,83.8134,4.74359,0,0.000885,0,0
0:0:25.720,94.4268,5.34344,0,0.000885,0,0
0:0:27.532,100.997,5.71575,0,0.000885,0,0
0:0:29.325,108.385,6.13633,0,0.000885,0,0
0:0:31.116,116.775,6.60518,0,0.000885,0,0
0:0:32.932,125.275,7.08781,0,0.000885,0,0
0:0:34.723,132.49,7.4946,0,0.000885,0,0
0:0:36.524,140.235,7.93587,0,0.000885,0,0
0:0:38.331,148.268,8.39092,0,0.000885,0,0
0:0:40.123,156.595,8.85976,0,0.000885,0,0
0:0:41.928,164.34,9.30103,0,0.000885,0,0
0:0:43.729,172.724,9.77677,0,0.000885,0,0
0:0:45.519,180.469,10.2111,0,0.000885,0,0
0:0:47.329,187.857,10.6317,0,0.000885,0,0
0:0:49.125,195.775,11.0799,0,0.000885,0,0
0:0:50.901,203.693,11.528,0,0.000885,0,0
0:0:52.708,211.847,11.99,0,0.000885,0,0
0:0:54.495,220.289,12.4657,0,0.000885,0,0
0:0:56.305,227.446,12.8725,0,0.000885,0,0
0:0:58.109,235.542,13.3276,0,0.000885,0,0
0:0:59.909,243.34,13.7688,0,0.000885,0,0
0:1:1.694,251.903,14.2515,0,0.000885,0,0
0:1:3.491,259.118,14.6651,0,0.000885,0,0
0:1:5.299,267.565,15.1409,0,0.000885,0,0
0:1:7.090,275.598,15.5959,0,0.000885,0,0
0:1:8.889,282.693,15.9958,0,0.000885,0,0
0:1:10.700,291.612,16.4992,0,0.000885,0,0
0:1:12.499,299.41,16.9404,0,0.000885,0,0
0:1:14.310,306.683,17.3541,0,0.000885,0,0
0:1:16.097,315.303,17.8436,0,0.000885,0,0
0:1:17.905,323.341,18.2987,0,0.000885,0,0
0:1:19.698,331.023,18.7331,0,0.000885,0,0
0:1:21.500,338.883,19.1743,0,0.000885,0,0
0:1:23.302,347.446,19.6638,0,0.000885,0,0
0:1:25.103,354.955,20.0844,0,0.000885,0,0
0:1:26.907,362.459,20.5119,0,0.000885,0,0
0:1:28.706,371.315,21.0152,0,0.000885,0,0
0:1:30.482,378.472,21.4151,0,0.000885,0,0
0:1:32.284,386.684,21.884,0,0.000885,0,0
0:1:34.067,394.424,22.3183,0,0.000885,0,0
0:1:35.848,402.462,22.7734,0,0.000885,0,0
0:1:37.651,410.259,23.2146,0,0.000885,0,0
0:1:39.434,417.768,23.6421,0,0.000885,0,0
0:1:41.218,425.979,24.1041,0,0.000885,0,0
0:1:43.019,434.013,24.5591,0,0.000885,0,0
0:1:44.804,442.402,25.0349,0,0.000885,0,0
0:1:46.619,449.733,25.4485,0,0.000885,0,0
0:1:48.420,458.411,25.9381,0,0.000885,0,0
0:1:50.206,465.92,26.3656,0,0.000885,0,0
0:1:52.014,474.074,26.8275,0,0.000885,0,0
0:1:53.798,481.284,27.2343,0,0.000885,0,0
0:1:55.578,489.202,27.6825,0,0.000885,0,0
0:1:57.379,497.649,28.1582,0,0.000885,0,0
0:1:59.162,505.273,28.5926,0,0.000885,0,0
0:2:0.938,513.076,29.0338,0,0.000885,0,0
0:2:2.747,521.109,29.4889,0,0.000885,0,0
0:2:4.523,529.436,29.9577,0,0.000885,0,0
0:2:6.312,537.416,30.4128,0,0.000885,0,0
0:2:8.113,545.272,30.854,0,0.000885,0,0
0:2:9.913,552.607,31.2677,0,0.000885,0,0
0:2:11.704,561.459,31.771,0,0.000885,0,0
0:2:13.496,568.91,32.1916,0,0.000885,0,0
0:2:15.271,576.712,32.6329,0,0.000885,0,0
0:2:17.069,584.394,33.0673,0,0.000885,0,0
0:2:18.857,592.899,33.5499,0,0.000885,0,0
0:2:20.648,600.354,33.9705,0,0.000885,0,0
0:2:22.457,607.987,34.4048,0,0.000885,0,0
0:2:24.249,616.497,34.8875,0,0.000885,0,0
0:2:26.038,624.13,35.3218,0,0.000885,0,0
0:2:27.846,632.346,35.7838,0,0.000885,0,0
0:2:29.633,639.392,36.1837,0,0.000885,0,0
0:2:31.433,647.901,36.6663,0,0.000885,0,0
0:2:33.235,656.237,37.1352,0,0.000885,0,0
0:2:35.025,663.692,37.5557,0,0.000885,0,0
0:2:36.824,671.735,38.0108,0,0.000885,0,0
0:2:38.624,679.599,38.459,0,0.000885,0,0
0:2:40.420,688.113,38.9416,0,0.000885,0,0
0:2:42.234,695.27,39.3415,0,0.000885,0,0
0:2:44.020,703.549,39.8103,0,0.000885,0,0
0:2:45.827,711.355,40.2516,0,0.000885,0,0
0:2:47.639,719.985,40.7411,0,0.000885,0,0
0:2:49.430,727.324,41.1548,0,0.000885,0,0
0:2:51.221,735.424,41.6168,0,0.000885,0,0
0:2:53.030,743.289,42.0649,0,0.000885,0,0
0:2:54.814,750.744,42.4855,0,0.000885,0,0
0:2:56.623,759.432,42.975,0,0.000885,0,0
0:2:58.427,767.59,43.437,0,0.000885,0,0
0:3:0.210,775.16,43.8644,0,0.000885,0,0
0:3:2.019,783.323,44.3264,0,0.000885,0,0
0:3:3.819,791.361,44.7814,0,0.000885,0,0
0:3:5.626,798.465,45.1813,0,0.000885,0,0
0:3:7.441,806.979,45.664,0,0.000885,0,0
0:3:9.228,815.604,46.1535,0,0.000885,0,0
0:3:11.027,822.828,46.5603,0,0.000885,0,0
0:3:12.840,831.515,47.0567,0,0.000885,0,0
0:3:14.626,838.614,47.4566,0,0.000885,0,0
0:3:16.426,846.657,47.9117,0,0.000885,0,0
0:3:18.226,854.641,48.3598,0,0.000885,0,0
0:3:20.011,862.154,48.7873,0,0.000885,0,0
0:3:21.814,871.077,49.2906,0,0.000885,0,0
0:3:23.619,878.181,49.6974,0,0.000885,0,0
0:3:25.406,885.868,50.1318,0,0.000885,0,0
0:3:27.215,894.675,50.6282,0,0.000885,0,0
0:3:29.006,902.713,51.0833,0,0.000885,0,0
0:3:30.826,909.644,51.4763,0,0.000885,0,0
0:3:32.635,918.269,51.9658,0,0.000885,0,0
0:3:34.434,926.08,52.4071,0,0.000885,0,0
0:3:36.229,934.18,52.8621,0,0.000885,0,0
0:3:38.033,942.044,53.3103,0,0.000885,0,0
0:3:39.817,950.847,53.8067,0,0.000885,0,0
0:3:41.619,957.6,54.1859,0,0.000885,0,0
0:3:43.431,966.696,54.703,0,0.000885,0,0
0:3:45.227,973.742,55.1029,0,0.000885,0,0
0:3:47.031,981.665,55.5511,0,0.000885,0,0
0:3:48.824,989.591,55.9992,0,0.000885,0,0
0:3:50.619,997.807,56.4612,0,0.000885,0,0
0:3:52.433,1005.79,56.9162,0,0.000885,0,0
0:3:54.228,1013.36,57.3437,0,0.000885,0,0
0:3:56.027,1021.7,57.8194,0,0.000885,0,0
0:3:57.835,1029.62,58.2676,0,0.000885,0,0
0:3:59.623,1037.49,58.7089,0,0.000885,0,0
0:4:1.440,1045.59,59.1708,0,0.000885,0,0
0:4:3.242,1053.51,59.619,0,0.000885,0,0
0:4:5.028,1061.15,60.0464,0,0.000885,0,0
0:4:6.840,1069.6,60.5291,0,0.000885,0,0
0:4:8.636,1076.99,60.9428,0,0.000885,0,0
0:4:10.423,1084.39,61.3633,0,0.000885,0,0
0:4:12.233,1093.43,61.8736,0,0.000885,0,0
0:4:14.030,1100.53,62.2803,0,0.000885,0,0
0:4:15.814,1109.34,62.7768,0,0.000885,0,0
0:4:17.626,1116.67,63.1905,0,0.000885,0,0
0:4:19.415,1124.83,63.6524,0,0.000885,0,0
0:4:21.205,1133.4,64.135,0,0.000885,0,0
0:4:23.013,1140.56,64.5418,0,0.000885,0,0
0:4:24.798,1149.02,65.0245,0,0.000885,0,0
0:4:26.599,1157.18,65.4795,0,0.000885,0,0
0:4:28.395,1164.4,65.8932,0,0.000885,0,0
0:4:30.187,1172.15,66.3276,0,0.000885,0,0
0:4:31.986,1181.19,66.8447,0,0.000885,0,0
0:4:33.783,1188.23,67.2377,0,0.000885,0,0
0:4:35.570,1196.5,67.7065,0,0.000885,0,0
0:4:37.380,1203.67,68.1133,0,0.000885,0,0
0:4:39.169,1212.82,68.6304,0,0.000885,0,0
0:4:40.960,1220.22,69.051,0,0.000885,0,0
0:4:42.768,1228.5,69.5198,0,0.000885,0,0
0:4:44.551,1235.01,69.8853,0,0.000885,0,0
0:4:46.349,1243.05,70.3403,0,0.000885,0,0
0:4:48.150,1252.5,70.8781,0,0.000885,0,0
0:4:49.935,1259.08,71.2504,0,0.000885,0,0
0:4:51.737,1268.29,71.7675,0,0.000885,0,0
0:4:53.543,1276.16,72.2157,0,0.000885,0,0
0:4:55.337,1283.44,72.6294,0,0.000885,0,0
0:4:57.151,1292.24,73.1258,0,0.000885,0,0
0:4:58.939,1300.11,73.574,0,0.000885,0,0
0:5:0.736,1307.27,73.9739,0,0.000885,0,0
0:5:2.547,1315.31,74.4289,0,0.000885,0,0
0:5:4.337,1323.59,74.8977,0,0.000885,0,0
0:5:6.135,1330.98,75.3183,0,0.000885,0,0
0:5:7.943,1339.38,75.7941,0,0.000885,0,0
0:5:9.742,1347.95,76.2767,0,0.000885,0,0
0:5:11.550,1354.4,76.6421,0,0.000885,0,0
0:5:13.349,1362.98,77.1316,0,0.000885,0,0
0:5:15.138,1370.9,77.5798,0,0.000885,0,0
0:5:16.957,1378.71,78.0211,0,0.000885,0,0
0:5:18.746,1387.45,78.5106,0,0.000885,0,0
0:5:20.540,1394.03,78.8829,0,0.000885,0,0
0:5:22.352,1402.83,79.3862,0,0.000885,0,0
0:5:24.139,1411.05,79.8482,0,0.000885,0,0
0:5:25.944,1418.21,80.255,0,0.000885,0,0
0:5:27.757,1427.02,80.7514,0,0.000885,0,0
0:5:29.541,1434.82,81.1927,0,0.000885,0,0
0:5:31.350,1442.63,81.6339,0,0.000885,0,0
0:5:33.149,1450.79,82.0959,0,0.000885,0,0
0:5:34.942,1458.42,82.5302,0,0.000885,0,0
0:5:36.746,1466.11,82.9646,0,0.000885,0,0
0:5:38.539,1474.51,83.4404,0,0.000885,0,0
0:5:40.345,1482.68,83.9023,0,0.000885,0,0
0:5:42.152,1490.86,84.3643,0,0.000885,0,0
0:5:43.942,1497.75,84.7573,0,0.000885,0,0
0:5:45.735,1505.99,85.2192,0,0.000885,0,0
0:5:47.559,1514.36,85.6949,0,0.000885,0,0
0:5:49.343,1521.54,86.1017,0,0.000885,0,0
0:5:51.149,1530.66,86.6188,0,0.000885,0,0
0:5:52.950,1537.91,87.0256,0,0.000885,0,0
0:5:54.746,1545.74,87.4738,0,0.000885,0,0
0:5:56.546,1554.28,87.9564,0,0.000885,0,0
0:5:58.341,1561.99,88.3908,0,0.000885,0,0
0:6:0.140,1570,88.8458,0,0.000885,0,0
0:6:1.954,1578.3,89.3147,0,0.000885,0,0
0:6:3.749,1586.43,89.7766,0,0.000885,0,0
0:6:5.546,1593.79,90.1903,0,0.000885,0,0
0:6:7.358,1601.68,90.6385,0,0.000885,0,0
0:6:9.142,1610.04,91.1073,0,0.000885,0,0
0:6:10.950,1617.4,91.5279,0,0.000885,0,0
0:6:12.760,1625.64,91.9899,0,0.000885,0,0
0:6:14.547,1633.59,92.4449,0,0.000885,0,0
0:6:16.349,1641.9,92.9137,0,0.000885,0,0
0:6:18.153,1649.2,93.3274,0,0.000885,0,0
0:6:19.949,1657.44,93.7894,0,0.000885,0,0
0:6:21.759,1664.86,94.21,0,0.000885,0,0
0:6:23.554,1673.51,94.6995,0,0.000885,0,0
0:6:25.352,1681.29,95.1408,0,0.000885,0,0
0:6:27.164,1689.12,95.582,0,0.000885,0,0
0:6:28.950,1697.3,96.0509,0,0.000885,0,0
0:6:30.744,1704.72,96.4645,0,0.000885,0,0
0:6:32.560,1712.85,96.9265,0,0.000885,0,0
0:6:34.352,1721.09,97.3953,0,0.000885,0,0
0:6:36.153,1729.57,97.8711,0,0.000885,0,0
0:6:37.963,1736.99,98.2917,0,0.000885,0,0
0:6:39.750,1745.47,98.7743,0,0.000885,0,0
0:6:41.553,1752.77,99.188,0,0.000885,0,0
0:6:43.350,1761.14,99.6568,0,0.000885,0,0
0:6:45.151,1769.08,100.112,0,0.000885,0,0
0:6:46.963,1775.85,100.491,0,0.000885,0,0
0:6:48.754,1785.28,101.029,0,0.000885,0,0
0:6:50.551,1792.7,101.443,0,0.000885,0,0
0:6:52.364,1800.17,101.87,0,0.000885,0,0
0:6:54.150,1808.24,102.325,0,0.000885,0,0
0:6:55.958,1816.19,102.773,0,0.000885,0,0
0:6:57.766,1822.73,103.146,0,0.000885,0,0
0:6:59.554,1822.73,103.146,0,0.000885,0,0
0:7:0.372,1751.83,99.1328,0,0.000885,0,0