File: DataFile2021-06-08_032217.csv
Test ID:,Date Tested:,Time:,Test Type:,Diameter Avg. (mm):,Cyl. Corr. Factor:,Height (mm):,Age (days):,Weight (kN):,Break Type:,Ramp Rate (MPa/s):,Load at Break (kN):,Stress at Break (MPa):
12,6/8/2021,03:22,Cylinder,100,1,200,0,3.6,3,0.25,687.87,87.58
Sample Time,Load (kN),Stress (MPa),Long. Strain,Trans. Strain,Chan1 Deflection (mm),Chan2 Deflection (mm)
0:0:6.228,5.04428,0.641212,0,0.000885,0,0
0:0:7.740,7.27284,0.923897,0,0.000885,0,0
0:0:9.247,10.4978,1.33758,0,0.000885,0,0
0:0:10.746,13.3714,1.70301,0,0.000885,0,0
0:0:12.254,17.655,2.24769,0,0.000885,0,0
0:0:13.752,20.2928,2.58553,0,0.000885,0,0
0:0:15.246,23.4021,2.97854,0,0.000885,0,0
0:0:16.744,25.5728,3.25433,0,0.000885,0,0
0:0:18.258,29.0914,3.70248,0,0.000885,0,0
0:0:19.751,31.9649,4.06791,0,0.000885,0,0
0:0:21.244,34.6027,4.40575,0,0.000885,0,0
0:0:22.753,37.5964,4.78496,0,0.000885,0,0
0:0:24.253,40.292,5.1297,0,0.000885,0,0
0:0:25.747,43.2234,5.50202,0,0.000885,0,0
0:0:27.248,46.2748,5.89502,0,0.000885,0,0
0:0:28.755,49.9713,6.36386,0,0.000885,0,0
0:0:30.246,52.4356,6.67413,0,0.000885,0,0
0:0:31.747,55.4248,7.06023,0,0.000885,0,0
0:0:33.263,58.2984,7.42565,0,0.000885,0,0
0:0:34.755,60.8784,7.74971,0,0.000885,0,0
0:0:36.246,64.0455,8.1565,0,0.000885,0,0
0:0:37.762,66.9769,8.52881,0,0.000885,0,0
0:0:39.253,69.7926,8.88734,0,0.000885,0,0
0:0:40.747,73.022,9.29413,0,0.000885,0,0
0:0:42.255,75.602,9.62508,0,0.000885,0,0
0:0:43.753,78.7691,10.0319,0,0.000885,0,0
0:0:45.245,82.1097,10.4525,0,0.000885,0,0
0:0:46.745,84.6319,10.7765,0,0.000885,0,0
0:0:48.255,88.0926,11.2178,0,0.000885,0,0
0:0:49.746,90.8505,11.5694,0,0.000885,0,0
0:0:51.249,93.6662,11.9279,0,0.000885,0,0
0:0:52.761,96.5398,12.2934,0,0.000885,0,0
0:0:54.257,99.3555,12.6519,0,0.000885,0,0
0:0:55.748,102.109,13.0035,0,0.000885,0,0
0:0:57.249,105.512,13.431,0,0.000885,0,0
0:0:58.754,108.443,13.8102,0,0.000885,0,0
0:1:0.243,110.614,14.086,0,0.000885,0,0
0:1:1.753,114.484,14.5755,0,0.000885,0,0
0:1:3.261,116.712,14.8582,0,0.000885,0,0
0:1:4.752,119.942,15.2719,0,0.000885,0,0
0:1:6.244,123.812,15.7614,0,0.000885,0,0
0:1:7.756,126.392,16.0924,0,0.000885,0,0
0:1:9.253,129.15,16.444,0,0.000885,0,0
0:1:10.745,131.787,16.7818,0,0.000885,0,0
0:1:12.257,134.545,17.1335,0,0.000885,0,0
0:1:13.761,137.77,17.5403,0,0.000885,0,0
0:1:15.251,140.88,17.9402,0,0.000885,0,0
0:1:16.740,143.46,18.2642,0,0.000885,0,0
0:1:18.257,146.862,18.6986,0,0.000885,0,0
0:1:19.749,150.323,19.1398,0,0.000885,0,0
0:1:21.249,152.316,19.395,0,0.000885,0,0
0:1:22.765,154.896,19.719,0,0.000885,0,0
0:1:24.260,158.121,20.1327,0,0.000885,0,0
0:1:25.749,161.23,20.5257,0,0.000885,0,0
0:1:27.263,164.34,20.9256,0,0.000885,0,0
0:1:28.767,167.742,21.36,0,0.000885,0,0
0:1:30.259,169.615,21.5944,0,0.000885,0,0
0:1:31.749,173.547,22.0977,0,0.000885,0,0
0:1:33.263,175.892,22.3942,0,0.000885,0,0
0:1:34.753,179.179,22.8148,0,0.000885,0,0
0:1:36.251,181.465,23.1043,0,0.000885,0,0
0:1:37.763,185.513,23.6214,0,0.000885,0,0
0:1:39.254,187.742,23.9041,0,0.000885,0,0
0:1:40.755,191.434,24.373,0,0.000885,0,0
0:1:42.258,194.543,24.7729,0,0.000885,0,0
0:1:43.748,196.714,25.0487,0,0.000885,0,0
0:1:45.238,200.059,25.4692,0,0.000885,0,0
0:1:46.749,202.754,25.814,0,0.000885,0,0
0:1:48.250,204.925,26.0898,0,0.000885,0,0
0:1:49.739,208.679,26.5724,0,0.000885,0,0
0:1:51.249,210.966,26.862,0,0.000885,0,0
0:1:52.743,215.187,27.3998,0,0.000885,0,0
0:1:54.240,217.829,27.7376,0,0.000885,0,0
0:1:55.737,219.822,27.9858,0,0.000885,0,0
0:1:57.254,222.989,28.3926,0,0.000885,0,0
0:1:58.751,226.624,28.8546,0,0.000885,0,0
0:2:0.241,229.733,29.2476,0,0.000885,0,0
0:2:1.757,231.437,29.4682,0,0.000885,0,0
0:2:3.259,235.542,29.9922,0,0.000885,0,0
0:2:4.749,237.241,30.2059,0,0.000885,0,0
0:2:6.249,241.583,30.7575,0,0.000885,0,0
0:2:7.758,244.336,31.1091,0,0.000885,0,0
0:2:9.254,246.098,31.3367,0,0.000885,0,0
0:2:10.753,249.501,31.7641,0,0.000885,0,0
0:2:12.252,253.135,32.233,0,0.000885,0,0
0:2:13.746,255.128,32.4812,0,0.000885,0,0
0:2:15.236,258.94,32.9707,0,0.000885,0,0
0:2:16.756,261.346,33.2741,0,0.000885,0,0
0:2:18.262,265.101,33.7567,0,0.000885,0,0
0:2:19.750,266.569,33.9429,0,0.000885,0,0
0:2:21.238,271.026,34.5083,0,0.000885,0,0
0:2:22.741,273.192,34.7841,0,0.000885,0,0
0:2:24.252,275.598,35.0874,0,0.000885,0,0
0:2:25.731,279.411,35.5769,0,0.000885,0,0
0:2:27.246,282.048,35.9148,0,0.000885,0,0
0:2:28.741,284.571,36.2319,0,0.000885,0,0
0:2:30.242,288.209,36.6939,0,0.000885,0,0
0:2:31.745,291.376,37.1007,0,0.000885,0,0
0:2:33.249,293.369,37.3558,0,0.000885,0,0
0:2:34.746,297.181,37.8384,0,0.000885,0,0
0:2:36.253,299.41,38.1211,0,0.000885,0,0
0:2:37.760,301.99,38.4521,0,0.000885,0,0
0:2:39.244,305.864,38.9416,0,0.000885,0,0
0:2:40.742,308.796,39.3139,0,0.000885,0,0
0:2:42.248,311.26,39.6311,0,0.000885,0,0
0:2:43.734,314.6,40.0585,0,0.000885,0,0
0:2:45.255,317.416,40.4171,0,0.000885,0,0
0:2:46.748,320.583,40.817,0,0.000885,0,0
0:2:48.247,323.577,41.1962,0,0.000885,0,0
0:2:49.758,325.921,41.4995,0,0.000885,0,0
0:2:51.245,328.973,41.8857,0,0.000885,0,0
0:2:52.754,331.081,42.1545,0,0.000885,0,0
0:2:54.261,335.658,42.7337,0,0.000885,0,0
0:2:55.761,338.238,43.0647,0,0.000885,0,0
0:2:57.260,340.525,43.3542,0,0.000885,0,0
0:2:58.758,343.928,43.7886,0,0.000885,0,0
0:3:0.244,347.504,44.2437,0,0.000885,0,0
0:3:1.765,350.32,44.6022,0,0.000885,0,0
0:3:3.259,353.429,45.0021,0,0.000885,0,0
0:3:4.744,354.892,45.1882,0,0.000885,0,0
0:3:6.257,358.94,45.6985,0,0.000885,0,0
0:3:7.761,360.875,45.9467,0,0.000885,0,0
0:3:9.261,364.336,46.3879,0,0.000885,0,0
0:3:10.742,367.503,46.7947,0,0.000885,0,0
0:3:12.247,370.377,47.1601,0,0.000885,0,0
0:3:13.748,373.544,47.56,0,0.000885,0,0
0:3:15.260,376.008,47.8772,0,0.000885,0,0
0:3:16.744,379.469,48.3185,0,0.000885,0,0
0:3:18.247,382.458,48.6977,0,0.000885,0,0
0:3:19.747,384.687,48.9804,0,0.000885,0,0
0:3:21.247,387.445,49.332,0,0.000885,0,0
0:3:22.746,391.141,49.8008,0,0.000885,0,0
0:3:24.233,394.366,50.2145,0,0.000885,0,0
0:3:25.754,397.124,50.5661,0,0.000885,0,0
0:3:27.246,400.171,50.9523,0,0.000885,0,0
0:3:28.751,402.462,51.2418,0,0.000885,0,0
0:3:30.262,405.393,51.6142,0,0.000885,0,0
0:3:31.762,408.56,52.0209,0,0.000885,0,0
0:3:33.259,411.901,52.4484,0,0.000885,0,0
0:3:34.749,414.717,52.8001,0,0.000885,0,0
0:3:36.252,417.768,53.1931,0,0.000885,0,0
0:3:37.759,420.642,53.5585,0,0.000885,0,0
0:3:39.264,423.222,53.8894,0,0.000885,0,0
0:3:40.753,426.504,54.3031,0,0.000885,0,0
0:3:42.270,429.44,54.6754,0,0.000885,0,0
0:3:43.765,431.784,54.9788,0,0.000885,0,0
0:3:45.254,435.129,55.3994,0,0.000885,0,0
0:3:46.746,437.825,55.7441,0,0.000885,0,0
0:3:48.251,441.228,56.1785,0,0.000885,0,0
0:3:49.751,443.866,56.5163,0,0.000885,0,0
0:3:51.262,447.211,56.9438,0,0.000885,0,0
0:3:52.765,450.084,57.3092,0,0.000885,0,0
0:3:54.256,452.664,57.6333,0,0.000885,0,0
0:3:55.738,456.361,58.1021,0,0.000885,0,0
0:3:57.232,458.532,58.3848,0,0.000885,0,0
0:3:58.728,461.757,58.7916,0,0.000885,0,0
0:4:0.209,464.63,59.157,0,0.000885,0,0
0:4:1.690,467.446,59.5155,0,0.000885,0,0
0:4:3.195,470.613,59.9223,0,0.000885,0,0
0:4:4.676,473.544,60.2947,0,0.000885,0,0
0:4:6.166,476.124,60.6187,0,0.000885,0,0
0:4:7.672,479.291,61.0255,0,0.000885,0,0
0:4:9.166,482.107,61.384,0,0.000885,0,0
0:4:10.654,485.039,61.7563,0,0.000885,0,0
0:4:12.150,488.148,62.1562,0,0.000885,0,0
0:4:13.664,491.257,62.5492,0,0.000885,0,0
0:4:15.163,493.953,62.894,0,0.000885,0,0
0:4:16.653,497.062,63.287,0,0.000885,0,0
0:4:18.157,499.469,63.5972,0,0.000885,0,0
0:4:19.657,503.103,64.0592,0,0.000885,0,0
0:4:21.148,505.918,64.4177,0,0.000885,0,0
0:4:22.653,509.143,64.8245,0,0.000885,0,0
0:4:24.133,510.963,65.0589,0,0.000885,0,0
0:4:25.615,514.481,65.5071,0,0.000885,0,0
0:4:27.111,517.124,65.8449,0,0.000885,0,0
0:4:28.606,520.7,66.3,0,0.000885,0,0
0:4:30.086,523.222,66.6171,0,0.000885,0,0
0:4:31.567,526.211,66.9964,0,0.000885,0,0
0:4:33.069,529.205,67.3825,0,0.000885,0,0
0:4:34.557,532.31,67.7755,0,0.000885,0,0
0:4:36.046,534.658,68.0719,0,0.000885,0,0
0:4:37.553,538.119,68.5132,0,0.000885,0,0
0:4:39.052,540.583,68.8304,0,0.000885,0,0
0:4:40.561,543.457,69.1958,0,0.000885,0,0
0:4:42.062,546.855,69.6302,0,0.000885,0,0
0:4:43.559,549.026,69.9059,0,0.000885,0,0
0:4:45.052,552.487,70.3472,0,0.000885,0,0
0:4:46.547,556.183,70.8161,0,0.000885,0,0
0:4:48.048,558.118,71.0643,0,0.000885,0,0
0:4:49.559,561.401,71.4779,0,0.000885,0,0
0:4:51.059,564.101,71.8227,0,0.000885,0,0
0:4:52.571,568.029,72.326,0,0.000885,0,0
0:4:54.057,570.493,72.6363,0,0.000885,0,0
0:4:55.548,573.603,73.0362,0,0.000885,0,0
0:4:57.071,575.947,73.3326,0,0.000885,0,0
0:4:58.567,579.408,73.7739,0,0.000885,0,0
0:5:0.053,582.459,74.16,0,0.000885,0,0
0:5:1.554,584.803,74.4565,0,0.000885,0,0
0:5:3.058,587.913,74.8564,0,0.000885,0,0
0:5:4.571,591.08,75.2563,0,0.000885,0,0
0:5:6.065,593.838,75.6079,0,0.000885,0,0
0:5:7.579,596.658,75.9664,0,0.000885,0,0
0:5:9.068,599.531,76.3319,0,0.000885,0,0
0:5:10.568,602.939,76.7662,0,0.000885,0,0
0:5:12.081,605.754,77.1248,0,0.000885,0,0
0:5:13.578,608.748,77.5109,0,0.000885,0,0
0:5:15.069,610.861,77.7798,0,0.000885,0,0
0:5:16.556,614.09,78.1865,0,0.000885,0,0
0:5:18.065,617.026,78.5589,0,0.000885,0,0
0:5:19.554,620.135,78.9588,0,0.000885,0,0
0:5:21.058,623.013,79.3242,0,0.000885,0,0
0:5:22.573,626.71,79.793,0,0.000885,0,0
0:5:24.070,629.761,80.186,0,0.000885,0,0
0:5:25.558,632.23,80.4963,0,0.000885,0,0
0:5:27.083,634.459,80.779,0,0.000885,0,0
0:5:28.580,638.449,81.2892,0,0.000885,0,0
0:5:30.072,641.033,81.6201,0,0.000885,0,0
0:5:31.572,643.911,81.9856,0,0.000885,0,0
0:5:33.085,646.491,82.3165,0,0.000885,0,0
0:5:34.574,649.369,82.6819,0,0.000885,0,0
0:5:36.074,652.892,83.1301,0,0.000885,0,0
0:5:37.581,655.824,83.5024,0,0.000885,0,0
0:5:39.079,658.644,83.8609,0,0.000885,0,0
0:5:40.565,661.402,84.2126,0,0.000885,0,0
0:5:42.066,664.689,84.6331,0,0.000885,0,0
0:5:43.567,667.625,85.0055,0,0.000885,0,0
0:5:45.065,670.618,85.3847,0,0.000885,0,0
0:5:46.564,673.14,85.7087,0,0.000885,0,0
0:5:48.069,676.076,86.081,0,0.000885,0,0
0:5:49.565,678.776,86.4258,0,0.000885,0,0
0:5:51.056,682.242,86.867,0,0.000885,0,0
0:5:52.574,685.293,87.2532,0,0.000885,0,0
0:5:54.069,687.993,87.5979,0,0.000885,0,0
0:5:54.747,665.921,84.7848,0,0.000885,0,0