File: DataFile2021-07-25_065430.csv
Test ID:,Date Tested:,Time:,Test Type:,Diameter Avg. (mm):,Cyl. Corr. Factor:,Height (mm):,Age (days):,Weight (kN):,Break Type:,Ramp Rate (MPa/s):,Load at Break (kN):,Stress at Break (MPa):
12,7/25/2021,06:54,Cylinder,100,1,200,0,3.5,3,0.26,155.78,19.84
Sample Time,Load (kN),Stress (MPa),Long. Strain,Trans. Strain,Chan1 Deflection (mm),Chan2 Deflection (mm)
0:0:5.737,5.04428,0.641212,0,0.000885,0,0
0:0:6.037,5.39569,0.689476,0,0.000885,0,0
0:0:6.333,5.33787,0.682581,0,0.000885,0,0
0:0:6.630,6.21861,0.792897,0,0.000885,0,0
0:0:6.931,7.62425,0.972161,0,0.000885,0,0
0:0:7.225,8.74076,1.11006,0,0.000885,0,0
0:0:7.526,10.2042,1.29621,0,0.000885,0,0
0:0:7.819,10.3243,1.3169,0,0.000885,0,0
0:0:8.119,11.1428,1.42032,0,0.000885,0,0
0:0:8.416,12.9043,1.64095,0,0.000885,0,0
0:0:8.725,13.4915,1.71679,0,0.000885,0,0
0:0:9.026,13.7228,1.74437,0,0.000885,0,0
0:0:9.318,14.2521,1.81332,0,0.000885,0,0
0:0:9.618,14.8971,1.89606,0,0.000885,0,0
0:0:9.915,16.1293,2.05464,0,0.000885,0,0
0:0:10.213,16.7164,2.13048,0,0.000885,0,0
0:0:10.512,17.5349,2.2339,0,0.000885,0,0
0:0:10.807,18.767,2.39248,0,0.000885,0,0
0:0:11.110,20.057,2.55106,0,0.000885,0,0
0:0:11.413,20.1193,2.55795,0,0.000885,0,0
0:0:11.717,20.7643,2.64069,0,0.000885,0,0
0:0:12.019,21.4671,2.73032,0,0.000885,0,0
0:0:12.324,22.4635,2.86132,0,0.000885,0,0
0:0:12.625,23.5177,2.99232,0,0.000885,0,0
0:0:12.919,23.9314,3.04748,0,0.000885,0,0
0:0:13.220,24.6921,3.14401,0,0.000885,0,0
0:0:13.518,26.5114,3.37843,0,0.000885,0,0
0:0:13.826,27.0986,3.44738,0,0.000885,0,0
0:0:14.125,27.8014,3.53701,0,0.000885,0,0
0:0:14.418,28.3886,3.61285,0,0.000885,0,0
0:0:14.720,29.207,3.71627,0,0.000885,0,0
0:0:15.028,30.6171,3.89554,0,0.000885,0,0
0:0:15.327,31.3199,3.98517,0,0.000885,0,0
0:0:15.626,32.7834,4.17133,0,0.000885,0,0
0:0:15.919,33.8421,4.30922,0,0.000885,0,0
0:0:16.223,34.7228,4.41954,0,0.000885,0,0
0:0:16.528,35.5991,4.52986,0,0.000885,0,0
0:0:16.831,36.0128,4.58501,0,0.000885,0,0
0:0:17.135,36.4799,4.64707,0,0.000885,0,0
0:0:17.436,38.0056,4.84012,0,0.000885,0,0
0:0:17.739,38.357,4.88149,0,0.000885,0,0
0:0:18.034,39.002,4.96423,0,0.000885,0,0
0:0:18.335,39.4735,5.02628,0,0.000885,0,0
0:0:18.632,39.9984,5.09523,0,0.000885,0,0
0:0:18.929,41.4663,5.28138,0,0.000885,0,0
0:0:19.229,42.5206,5.41238,0,0.000885,0,0
0:0:19.526,42.8141,5.45375,0,0.000885,0,0
0:0:19.828,43.8105,5.57786,0,0.000885,0,0
0:0:20.120,44.8692,5.71575,0,0.000885,0,0
0:0:20.420,45.9234,5.84675,0,0.000885,0,0
0:0:20.731,46.8042,5.95707,0,0.000885,0,0
0:0:21.028,47.9741,6.10875,0,0.000885,0,0
0:0:21.329,48.5034,6.1777,0,0.000885,0,0
0:0:21.633,49.4998,6.30181,0,0.000885,0,0
0:0:21.937,50.1448,6.38455,0,0.000885,0,0
0:0:22.241,50.9099,6.48107,0,0.000885,0,0
0:0:22.543,51.5549,6.56381,0,0.000885,0,0
0:0:22.846,52.3155,6.66034,0,0.000885,0,0
0:0:23.141,53.432,6.80513,0,0.000885,0,0
0:0:23.443,53.8413,6.85339,0,0.000885,0,0
0:0:23.740,54.5441,6.94302,0,0.000885,0,0
0:0:24.040,55.5405,7.07402,0,0.000885,0,0
0:0:24.339,56.2478,7.16365,0,0.000885,0,0
0:0:24.637,56.8928,7.24639,0,0.000885,0,0
0:0:24.938,57.5956,7.33602,0,0.000885,0,0
0:0:25.232,58.2406,7.41876,0,0.000885,0,0
0:0:25.534,59.1213,7.52907,0,0.000885,0,0
0:0:25.831,60.4691,7.70144,0,0.000885,0,0
0:0:26.136,61.2298,7.79797,0,0.000885,0,0
0:0:26.441,62.2884,7.92897,0,0.000885,0,0
0:0:26.745,63.1647,8.03929,0,0.000885,0,0
0:0:27.046,64.0455,8.1565,0,0.000885,0,0
0:0:27.349,65.3355,8.32197,0,0.000885,0,0
0:0:27.649,66.1006,8.4185,0,0.000885,0,0
0:0:27.949,66.5676,8.47366,0,0.000885,0,0
0:0:28.245,67.5062,8.59776,0,0.000885,0,0
0:0:28.547,68.7384,8.74945,0,0.000885,0,0
0:0:28.842,69.3834,8.83218,0,0.000885,0,0
0:0:29.144,70.5577,8.98387,0,0.000885,0,0
0:0:29.441,70.7312,9.00455,0,0.000885,0,0
0:0:29.738,71.0248,9.04592,0,0.000885,0,0
0:0:30.040,72.0212,9.17003,0,0.000885,0,0
0:0:30.336,72.8441,9.27345,0,0.000885,0,0
0:0:30.638,73.3111,9.3355,0,0.000885,0,0
0:0:30.934,74.2497,9.45271,0,0.000885,0,0
0:0:31.237,75.6598,9.63198,0,0.000885,0,0
0:0:31.541,75.6598,9.63198,0,0.000885,0,0
0:0:31.845,76.714,9.76987,0,0.000885,0,0
0:0:32.147,77.1233,9.81813,0,0.000885,0,0
0:0:32.451,78.0618,9.94224,0,0.000885,0,0
0:0:32.750,78.8848,10.0457,0,0.000885,0,0
0:0:33.049,79.6454,10.1422,0,0.000885,0,0
0:0:33.347,80.4105,10.2387,0,0.000885,0,0
0:0:33.649,81.3491,10.3559,0,0.000885,0,0
0:0:33.945,82.9326,10.5559,0,0.000885,0,0
0:0:34.246,83.1061,10.5835,0,0.000885,0,0
0:0:34.544,84.2226,10.7213,0,0.000885,0,0
0:0:34.839,85.0411,10.8248,0,0.000885,0,0
0:0:35.141,85.9797,10.9489,0,0.000885,0,0
0:0:35.437,87.0962,11.0868,0,0.000885,0,0
0:0:35.737,87.0962,11.0868,0,0.000885,0,0
0:0:36.034,87.5632,11.1488,0,0.000885,0,0
0:0:36.337,88.444,11.2591,0,0.000885,0,0
0:0:36.641,89.2091,11.3557,0,0.000885,0,0
0:0:36.944,90.9661,11.5832,0,0.000885,0,0
0:0:37.248,91.4955,11.6521,0,0.000885,0,0
0:0:37.549,92.2561,11.7487,0,0.000885,0,0
0:0:37.851,93.6662,11.9279,0,0.000885,0,0
0:0:38.150,94.5425,12.0382,0,0.000885,0,0
0:0:38.447,95.7168,12.1899,0,0.000885,0,0
0:0:38.749,96.5976,12.3002,0,0.000885,0,0
0:0:39.042,96.949,12.3416,0,0.000885,0,0
0:0:39.343,98.0032,12.4795,0,0.000885,0,0
0:0:39.643,99.529,12.6726,0,0.000885,0,0
0:0:39.940,100.761,12.8311,0,0.000885,0,0
0:0:40.240,100.645,12.8174,0,0.000885,0,0
0:0:40.534,100.997,12.8587,0,0.000885,0,0
0:0:40.837,101.993,12.9828,0,0.000885,0,0
0:0:41.132,103.048,13.1207,0,0.000885,0,0
0:0:41.435,103.399,13.1621,0,0.000885,0,0
0:0:41.739,103.87,13.2241,0,0.000885,0,0
0:0:42.044,104.867,13.3551,0,0.000885,0,0
0:0:42.345,105.69,13.4586,0,0.000885,0,0
0:0:42.648,106.335,13.5413,0,0.000885,0,0
0:0:42.950,106.922,13.6103,0,0.000885,0,0
0:0:43.247,107.447,13.6792,0,0.000885,0,0
0:0:43.545,108.621,13.8309,0,0.000885,0,0
0:0:43.844,109.502,13.9412,0,0.000885,0,0
0:0:44.141,111.201,14.1618,0,0.000885,0,0
0:0:44.443,111.673,14.217,0,0.000885,0,0
0:0:44.737,112.082,14.2721,0,0.000885,0,0
0:0:45.039,113.723,14.479,0,0.000885,0,0
0:0:45.336,114.484,14.5755,0,0.000885,0,0
0:0:45.632,115.249,14.672,0,0.000885,0,0
0:0:45.933,116.188,14.7961,0,0.000885,0,0
0:0:46.238,116.539,14.8375,0,0.000885,0,0
0:0:46.540,117.357,14.9409,0,0.000885,0,0
0:0:46.844,117.829,15.003,0,0.000885,0,0
0:0:47.147,118.71,15.1133,0,0.000885,0,0
0:0:47.450,119.061,15.1616,0,0.000885,0,0
0:0:47.746,120.88,15.3891,0,0.000885,0,0
0:0:48.049,121.29,15.4443,0,0.000885,0,0
0:0:48.343,121.935,15.527,0,0.000885,0,0
0:0:48.643,123.34,15.7063,0,0.000885,0,0
0:0:48.942,123.927,15.7821,0,0.000885,0,0
0:0:49.240,124.986,15.9131,0,0.000885,0,0
0:0:49.540,125.453,15.9752,0,0.000885,0,0
0:0:49.834,126.685,16.1268,0,0.000885,0,0
0:0:50.137,127.273,16.2027,0,0.000885,0,0
0:0:50.432,127.624,16.2509,0,0.000885,0,0
0:0:50.730,128.678,16.3819,0,0.000885,0,0
0:0:51.030,129.737,16.5198,0,0.000885,0,0
0:0:51.334,130.204,16.575,0,0.000885,0,0
0:0:51.638,130.497,16.6164,0,0.000885,0,0
0:0:51.942,132.023,16.8094,0,0.000885,0,0
0:0:52.245,132.784,16.9059,0,0.000885,0,0
0:0:52.546,133.313,16.9749,0,0.000885,0,0
0:0:52.843,133.429,16.9887,0,0.000885,0,0
0:0:53.144,134.016,17.0645,0,0.000885,0,0
0:0:53.440,134.603,17.1404,0,0.000885,0,0
0:0:53.743,134.955,17.1817,0,0.000885,0,0
0:0:54.039,136.009,17.3196,0,0.000885,0,0
0:0:54.339,136.89,17.4299,0,0.000885,0,0
0:0:54.641,137.944,17.5609,0,0.000885,0,0
0:0:54.935,138.825,17.6782,0,0.000885,0,0
0:0:55.237,139.527,17.7678,0,0.000885,0,0
0:0:55.533,140.644,17.9057,0,0.000885,0,0
0:0:55.832,141.818,18.0574,0,0.000885,0,0
0:0:56.131,142.93,18.1953,0,0.000885,0,0
0:0:56.435,144.278,18.3676,0,0.000885,0,0
0:0:56.740,145.101,18.4779,0,0.000885,0,0
0:0:57.043,145.688,18.5469,0,0.000885,0,0
0:0:57.346,146.862,18.6986,0,0.000885,0,0
0:0:57.648,146.92,18.7055,0,0.000885,0,0
0:0:57.946,147.036,18.7193,0,0.000885,0,0
0:0:58.248,147.507,18.7813,0,0.000885,0,0
0:0:58.543,146.92,18.7055,0,0.000885,0,0
0:0:58.845,147.445,18.7744,0,0.000885,0,0
0:0:59.140,148.446,18.8985,0,0.000885,0,0
0:0:59.440,148.971,18.9675,0,0.000885,0,0
0:0:59.738,149.794,19.0709,0,0.000885,0,0
0:1:0.035,150.497,19.1605,0,0.000885,0,0
0:1:0.337,151.32,19.264,0,0.000885,0,0
0:1:0.633,151.787,19.326,0,0.000885,0,0
0:1:0.934,152.138,19.3743,0,0.000885,0,0
0:1:1.232,152.903,19.4708,0,0.000885,0,0
0:1:1.534,153.49,19.5397,0,0.000885,0,0
0:1:1.841,154.309,19.6501,0,0.000885,0,0
0:1:2.144,155.132,19.7535,0,0.000885,0,0
0:1:2.445,155.777,19.8362,0,0.000885,0,0
0:1:2.748,156.012,19.8638,0,0.000885,0,0
0:1:3.047,155.541,19.8017,0,0.000885,0,0
0:1:3.346,154.367,19.657,0,0.000885,0,0
0:1:3.639,153.312,19.5191,0,0.000885,0,0
0:1:3.941,151.084,19.2364,0,0.000885,0,0
0:1:4.236,147.739,18.8089,0,0.000885,0,0
0:1:4.536,143.166,18.2297,0,0.000885,0,0
0:1:4.832,141.525,18.016,0,0.000885,0,0
0:1:5.131,139.999,17.8229,0,0.000885,0,0
0:1:5.430,137.886,17.5541,0,0.000885,0,0
0:1:5.733,135.484,17.2507,0,0.000885,0,0
0:1:6.036,133.607,17.0094,0,0.000885,0,0
0:1:6.338,132.081,16.8163,0,0.000885,0,0
0:1:6.642,131.027,16.6853,0,0.000885,0,0
0:1:6.944,129.443,16.4785,0,0.000885,0,0
0:1:7.246,127.975,16.2923,0,0.000885,0,0
0:1:7.548,126.743,16.1406,0,0.000885,0,0
0:1:7.843,125.511,15.982,0,0.000885,0,0
0:1:8.143,124.105,15.8028,0,0.000885,0,0
0:1:8.441,121.583,15.4787,0,0.000885,0,0
0:1:8.737,120.351,15.3202,0,0.000885,0,0
0:1:9.037,117.357,14.9409,0,0.000885,0,0
0:1:9.242,115.129,14.6583,0,0.000885,0,0