File: DataFile2021-06-29_074636.csv
Test ID:,Date Tested:,Time:,Test Type:,Diameter Avg. (mm):,Cyl. Corr. Factor:,Height (mm):,Age (days):,Weight (kN):,Break Type:,Ramp Rate (MPa/s):,Load at Break (kN):,Stress at Break (MPa):
12,6/29/2021,07:46,Cylinder,150,1,300,0,3.6,3,0.23,412.37,23.34
Sample Time,Load (kN),Stress (MPa),Long. Strain,Trans. Strain,Chan1 Deflection (mm),Chan2 Deflection (mm)
0:0:12.686,5.21776,0.296475,0,0.000885,0,0
0:0:13.185,10.907,0.620528,0,0.000885,0,0
0:0:13.681,11.3207,0.641212,0,0.000885,0,0
0:0:14.176,11.4364,0.648107,0,0.000885,0,0
0:0:14.676,12.9043,0.730844,0,0.000885,0,0
0:0:15.173,14.7192,0.834266,0,0.000885,0,0
0:0:15.672,18.2422,1.03421,0,0.000885,0,0
0:0:16.169,20.235,1.14453,0,0.000885,0,0
0:0:16.676,22.1699,1.25485,0,0.000885,0,0
0:0:17.173,23.7535,1.34448,0,0.000885,0,0
0:0:17.671,26.5692,1.50306,0,0.000885,0,0
0:0:18.168,29.5006,1.66853,0,0.000885,0,0
0:0:18.674,31.4356,1.77885,0,0.000885,0,0
0:0:19.178,34.4871,1.95122,0,0.000885,0,0
0:0:19.686,37.245,2.1098,0,0.000885,0,0
0:0:20.185,39.3534,2.22701,0,0.000885,0,0
0:0:20.681,41.8756,2.3718,0,0.000885,0,0
0:0:21.178,44.3977,2.50969,0,0.000885,0,0
0:0:21.674,45.572,2.57864,0,0.000885,0,0
0:0:22.173,48.0942,2.72343,0,0.000885,0,0
0:0:22.670,49.7934,2.81996,0,0.000885,0,0
0:0:23.176,51.0834,2.8889,0,0.000885,0,0
0:0:23.683,53.7256,3.04059,0,0.000885,0,0
0:0:24.187,56.0698,3.17159,0,0.000885,0,0
0:0:24.685,58.2984,3.29569,0,0.000885,0,0
0:0:25.182,59.8241,3.38533,0,0.000885,0,0
0:0:25.679,63.227,3.57838,0,0.000885,0,0
0:0:26.178,65.5134,3.70938,0,0.000885,0,0
0:0:26.674,67.6219,3.82659,0,0.000885,0,0
0:0:27.173,69.7348,3.9438,0,0.000885,0,0
0:0:27.671,72.1991,4.08859,0,0.000885,0,0
0:0:28.175,74.1919,4.19891,0,0.000885,0,0
0:0:28.685,75.3662,4.26785,0,0.000885,0,0
0:0:29.187,78.4755,4.44022,0,0.000885,0,0
0:0:29.688,80.2904,4.54365,0,0.000885,0,0
0:0:30.187,82.2877,4.65396,0,0.000885,0,0
0:0:30.685,84.6319,4.79186,0,0.000885,0,0
0:0:31.182,87.7412,4.96423,0,0.000885,0,0
0:0:31.679,89.5605,5.06765,0,0.000885,0,0
0:0:32.177,91.4376,5.17107,0,0.000885,0,0
0:0:32.676,94.0176,5.32275,0,0.000885,0,0
0:0:33.175,95.7747,5.41928,0,0.000885,0,0
0:0:33.683,97.8876,5.53649,0,0.000885,0,0
0:0:34.188,100.468,5.68817,0,0.000885,0,0
0:0:34.693,103.168,5.83986,0,0.000885,0,0
0:0:35.189,105.218,5.95707,0,0.000885,0,0
0:0:35.687,107.389,6.07428,0,0.000885,0,0
0:0:36.186,110.027,6.22597,0,0.000885,0,0
0:0:36.681,110.792,6.26733,0,0.000885,0,0
0:0:37.179,113.665,6.43281,0,0.000885,0,0
0:0:37.675,115.774,6.55002,0,0.000885,0,0
0:0:38.174,117.242,6.63276,0,0.000885,0,0
0:0:38.681,119.88,6.78444,0,0.000885,0,0
0:0:39.188,122.286,6.92234,0,0.000885,0,0
0:0:39.691,124.808,7.06023,0,0.000885,0,0
0:0:40.189,126.801,7.17744,0,0.000885,0,0
0:0:40.685,129.03,7.30155,0,0.000885,0,0
0:0:41.183,131.61,7.44634,0,0.000885,0,0
0:0:41.679,133.255,7.54286,0,0.000885,0,0
0:0:42.178,135.893,7.68765,0,0.000885,0,0
0:0:42.674,137.886,7.80487,0,0.000885,0,0
0:0:43.181,139.47,7.8945,0,0.000885,0,0
0:0:43.688,142.05,8.03929,0,0.000885,0,0
0:0:44.192,144.634,8.18408,0,0.000885,0,0
0:0:44.691,147.387,8.34266,0,0.000885,0,0
0:0:45.189,148.971,8.43229,0,0.000885,0,0
0:0:45.686,151.142,8.5495,0,0.000885,0,0
0:0:46.185,153.9,8.70808,0,0.000885,0,0
0:0:46.682,155.19,8.78392,0,0.000885,0,0
0:0:47.183,157.77,8.92871,0,0.000885,0,0
0:0:47.678,160.292,9.0735,0,0.000885,0,0
0:0:48.179,161.76,9.15624,0,0.000885,0,0
0:0:48.688,164.34,9.30103,0,0.000885,0,0
0:0:49.193,167.68,9.48719,0,0.000885,0,0
0:0:49.696,169.206,9.57682,0,0.000885,0,0
0:0:50.193,170.91,9.67334,0,0.000885,0,0
0:0:50.692,173.312,9.80434,0,0.000885,0,0
0:0:51.189,175.482,9.92845,0,0.000885,0,0
0:0:51.687,177.417,10.0388,0,0.000885,0,0
0:0:52.185,179.766,10.1698,0,0.000885,0,0
0:0:52.683,182.346,10.3215,0,0.000885,0,0
0:0:53.182,183.867,10.4042,0,0.000885,0,0
0:0:53.690,186.216,10.5352,0,0.000885,0,0
0:0:54.193,188.618,10.6731,0,0.000885,0,0
0:0:54.699,191.26,10.8248,0,0.000885,0,0
0:0:55.194,193.195,10.9351,0,0.000885,0,0
0:0:55.689,195.482,11.0592,0,0.000885,0,0
0:0:56.184,197.768,11.1902,0,0.000885,0,0
0:0:56.678,199.414,11.2867,0,0.000885,0,0
0:0:57.174,201.874,11.4246,0,0.000885,0,0
0:0:57.676,204.222,11.5556,0,0.000885,0,0
0:0:58.171,206.393,11.6797,0,0.000885,0,0
0:0:58.676,209.089,11.8314,0,0.000885,0,0
0:0:59.177,211.144,11.9486,0,0.000885,0,0
0:0:59.678,213.016,12.052,0,0.000885,0,0
0:1:0.174,215.249,12.183,0,0.000885,0,0
0:1:0.678,217.767,12.3209,0,0.000885,0,0
0:1:1.171,219.707,12.4312,0,0.000885,0,0
0:1:1.675,221.29,12.5209,0,0.000885,0,0
0:1:2.178,223.225,12.6312,0,0.000885,0,0
0:1:2.674,225.569,12.7622,0,0.000885,0,0
0:1:3.175,227.446,12.8725,0,0.000885,0,0
0:1:3.679,229.853,13.0035,0,0.000885,0,0
0:1:4.183,233.251,13.1966,0,0.000885,0,0
0:1:4.685,235.013,13.3,0,0.000885,0,0
0:1:5.180,237.886,13.4586,0,0.000885,0,0
0:1:5.675,240.231,13.5965,0,0.000885,0,0
0:1:6.178,242.286,13.7137,0,0.000885,0,0
0:1:6.672,244.221,13.8171,0,0.000885,0,0
0:1:7.175,246.507,13.9481,0,0.000885,0,0
0:1:7.672,249.087,14.0929,0,0.000885,0,0
0:1:8.175,250.791,14.1894,0,0.000885,0,0
0:1:8.679,252.899,14.3135,0,0.000885,0,0
0:1:9.181,254.719,14.4169,0,0.000885,0,0
0:1:9.681,256.244,14.4997,0,0.000885,0,0
0:1:10.177,258.473,14.6238,0,0.000885,0,0
0:1:10.672,260.879,14.7617,0,0.000885,0,0
0:1:11.176,262.93,14.8789,0,0.000885,0,0
0:1:11.671,265.568,15.0306,0,0.000885,0,0
0:1:12.175,268.09,15.1685,0,0.000885,0,0
0:1:12.679,270.67,15.3202,0,0.000885,0,0
0:1:13.184,272.316,15.4098,0,0.000885,0,0
0:1:13.687,274.896,15.5546,0,0.000885,0,0
0:1:14.187,277.418,15.6994,0,0.000885,0,0
0:1:14.680,279.059,15.789,0,0.000885,0,0
0:1:15.175,281.466,15.9269,0,0.000885,0,0
0:1:15.679,284.046,16.0717,0,0.000885,0,0
0:1:16.174,285.745,16.1682,0,0.000885,0,0
0:1:16.687,287.68,16.2785,0,0.000885,0,0
0:1:17.183,290.086,16.4164,0,0.000885,0,0
0:1:17.677,292.666,16.5612,0,0.000885,0,0
0:1:18.177,294.543,16.6646,0,0.000885,0,0
0:1:18.682,297.475,16.837,0,0.000885,0,0
0:1:19.183,299.939,16.9749,0,0.000885,0,0
0:1:19.679,301.874,17.0852,0,0.000885,0,0
0:1:20.174,304.338,17.2231,0,0.000885,0,0
0:1:20.679,306.389,17.3403,0,0.000885,0,0
0:1:21.174,307.973,17.4299,0,0.000885,0,0
0:1:21.678,310.321,17.5609,0,0.000885,0,0
0:1:22.182,312.959,17.7126,0,0.000885,0,0
0:1:22.678,314.894,17.8161,0,0.000885,0,0
0:1:23.182,317.065,17.9402,0,0.000885,0,0
0:1:23.687,318.826,18.0436,0,0.000885,0,0
0:1:24.186,320.935,18.1608,0,0.000885,0,0
0:1:24.689,322.576,18.2573,0,0.000885,0,0
0:1:25.183,324.925,18.3883,0,0.000885,0,0
0:1:25.677,326.975,18.5055,0,0.000885,0,0
0:1:26.179,328.91,18.6158,0,0.000885,0,0
0:1:26.673,330.965,18.7262,0,0.000885,0,0
0:1:27.165,333.43,18.871,0,0.000885,0,0
0:1:27.672,335.538,18.9882,0,0.000885,0,0
0:1:28.176,337.945,19.1261,0,0.000885,0,0
0:1:28.679,340.231,19.2502,0,0.000885,0,0
0:1:29.179,342.695,19.395,0,0.000885,0,0
0:1:29.680,344.866,19.5122,0,0.000885,0,0
0:1:30.176,347.037,19.6363,0,0.000885,0,0
0:1:30.681,349.03,19.7535,0,0.000885,0,0
0:1:31.171,350.907,19.8569,0,0.000885,0,0
0:1:31.676,353.78,20.0224,0,0.000885,0,0
0:1:32.182,355.831,20.1327,0,0.000885,0,0
0:1:32.674,357.477,20.2292,0,0.000885,0,0
0:1:33.179,360.875,20.4223,0,0.000885,0,0
0:1:33.680,362.637,20.5188,0,0.000885,0,0
0:1:34.182,365.453,20.6774,0,0.000885,0,0
0:1:34.676,367.445,20.7946,0,0.000885,0,0
0:1:35.180,369.38,20.9049,0,0.000885,0,0
0:1:35.675,372.08,21.0566,0,0.000885,0,0
0:1:36.180,373.722,21.1462,0,0.000885,0,0
0:1:36.674,375.479,21.2496,0,0.000885,0,0
0:1:37.178,377.885,21.3806,0,0.000885,0,0
0:1:37.682,379.82,21.491,0,0.000885,0,0
0:1:38.178,381.933,21.6151,0,0.000885,0,0
0:1:38.683,384.162,21.7392,0,0.000885,0,0
0:1:39.184,386.915,21.8977,0,0.000885,0,0
0:1:39.685,388.441,21.9805,0,0.000885,0,0
0:1:40.181,390.376,22.0908,0,0.000885,0,0
0:1:40.684,392.373,22.2011,0,0.000885,0,0
0:1:41.177,394.308,22.3114,0,0.000885,0,0
0:1:41.670,396.359,22.4286,0,0.000885,0,0
0:1:42.175,398.65,22.5596,0,0.000885,0,0
0:1:42.681,400.7,22.6769,0,0.000885,0,0
0:1:43.172,402.462,22.7734,0,0.000885,0,0
0:1:43.678,404.334,22.8837,0,0.000885,0,0
0:1:44.178,405.918,22.9733,0,0.000885,0,0
0:1:44.680,408.44,23.1112,0,0.000885,0,0
0:1:45.184,410.495,23.2284,0,0.000885,0,0
0:1:45.679,411.14,23.2629,0,0.000885,0,0
0:1:46.179,412.021,23.3181,0,0.000885,0,0
0:1:46.686,412.608,23.3456,0,0.000885,0,0
0:1:47.176,412.021,23.3181,0,0.000885,0,0
0:1:47.679,410.962,23.256,0,0.000885,0,0
0:1:48.180,408.089,23.0905,0,0.000885,0,0
0:1:48.680,401.875,22.7389,0,0.000885,0,0
0:1:49.178,391.55,22.1597,0,0.000885,0,0
0:1:49.669,382.107,21.622,0,0.000885,0,0
0:1:50.173,377.943,21.3875,0,0.000885,0,0
0:1:50.677,373.25,21.1186,0,0.000885,0,0
0:1:51.189,370.497,20.967,0,0.000885,0,0
0:1:51.680,368.09,20.8291,0,0.000885,0,0
0:1:52.184,366.449,20.7394,0,0.000885,0,0
0:1:52.686,365.159,20.6636,0,0.000885,0,0
0:1:53.185,363.046,20.5464,0,0.000885,0,0
0:1:53.687,361.756,20.4705,0,0.000885,0,0
0:1:54.186,359.35,20.3326,0,0.000885,0,0
0:1:54.682,356.89,20.1947,0,0.000885,0,0
0:1:55.186,354.247,20.0431,0,0.000885,0,0
0:1:55.677,350.849,19.8569,0,0.000885,0,0
0:1:56.180,348.149,19.6983,0,0.000885,0,0
0:1:56.684,344.63,19.5053,0,0.000885,0,0
0:1:57.177,340.818,19.2846,0,0.000885,0,0
0:1:57.679,337.887,19.1192,0,0.000885,0,0
0:1:58.182,332.665,18.8227,0,0.000885,0,0
0:1:58.684,326.682,18.4848,0,0.000885,0,0
0:1:59.185,322.87,18.2711,0,0.000885,0,0
0:1:59.686,317.007,17.9402,0,0.000885,0,0
0:2:0.187,309.383,17.5058,0,0.000885,0,0
0:2:0.679,301.638,17.0714,0,0.000885,0,0
0:2:1.180,296.127,16.7543,0,0.000885,0,0
0:2:1.614,290.028,16.4095,0,0.000885,0,0