File: DataFile2021-06-07_072910.csv
Test ID:,Date Tested:,Time:,Test Type:,Diameter Avg. (mm):,Cyl. Corr. Factor:,Height (mm):,Age (days):,Weight (kN):,Break Type:,Ramp Rate (MPa/s):,Load at Break (kN):,Stress at Break (MPa):
12,6/7/2021,07:29,Cylinder,100,1,200,0,3.6,3,0.25,640.62,81.56
Sample Time,Load (kN),Stress (MPa),Long. Strain,Trans. Strain,Chan1 Deflection (mm),Chan2 Deflection (mm)
0:0:18.100,6.09851,0.779108,0,0.000885,0,0
0:0:19.496,10.907,1.38585,0,0.000885,0,0
0:0:20.915,10.3243,1.3169,0,0.000885,0,0
0:0:22.303,12.1392,1.54443,0,0.000885,0,0
0:0:23.703,15.3063,1.95122,0,0.000885,0,0
0:0:25.121,19.0606,2.42695,0,0.000885,0,0
0:0:26.512,22.0543,2.80617,0,0.000885,0,0
0:0:27.919,24.7499,3.1509,0,0.000885,0,0
0:0:29.329,27.3299,3.48185,0,0.000885,0,0
0:0:30.728,29.2648,3.72317,0,0.000885,0,0
0:0:32.118,33.0191,4.2058,0,0.000885,0,0
0:0:33.517,35.4835,4.51607,0,0.000885,0,0
0:0:34.930,38.0056,4.84012,0,0.000885,0,0
0:0:36.323,41.2306,5.24691,0,0.000885,0,0
0:0:37.713,43.7527,5.57096,0,0.000885,0,0
0:0:39.131,46.9777,5.98465,0,0.000885,0,0
0:0:40.536,48.797,6.21218,0,0.000885,0,0
0:0:41.929,51.7284,6.58449,0,0.000885,0,0
0:0:43.319,53.9569,6.86718,0,0.000885,0,0
0:0:44.734,57.4176,7.30844,0,0.000885,0,0
0:0:46.133,59.9976,7.63939,0,0.000885,0,0
0:0:47.525,63.0491,8.0255,0,0.000885,0,0
0:0:48.924,65.5712,8.34955,0,0.000885,0,0
0:0:50.337,67.9154,8.64603,0,0.000885,0,0
0:0:51.730,71.2027,9.06661,0,0.000885,0,0
0:0:53.120,73.5469,9.36308,0,0.000885,0,0
0:0:54.535,76.5984,9.75608,0,0.000885,0,0
0:0:55.935,79.8812,10.1698,0,0.000885,0,0
0:0:57.324,82.0519,10.4456,0,0.000885,0,0
0:0:58.721,85.1034,10.8386,0,0.000885,0,0
0:1:0.134,87.6833,11.1626,0,0.000885,0,0
0:1:1.527,90.4991,11.5211,0,0.000885,0,0
0:1:2.917,92.9011,11.8314,0,0.000885,0,0
0:1:4.333,95.659,12.183,0,0.000885,0,0
0:1:5.736,98.1233,12.4933,0,0.000885,0,0
0:1:7.129,101.584,12.9346,0,0.000885,0,0
0:1:8.529,104.573,13.3138,0,0.000885,0,0
0:1:9.936,106.277,13.5344,0,0.000885,0,0
0:1:11.329,109.444,13.9343,0,0.000885,0,0
0:1:12.720,112.549,14.3273,0,0.000885,0,0
0:1:14.127,114.662,14.5962,0,0.000885,0,0
0:1:15.534,117.771,14.9961,0,0.000885,0,0
0:1:16.925,120.467,15.3408,0,0.000885,0,0
0:1:18.317,123.282,15.6994,0,0.000885,0,0
0:1:19.732,126.45,16.0993,0,0.000885,0,0
0:1:21.132,128.678,16.3819,0,0.000885,0,0
0:1:22.522,131.61,16.7543,0,0.000885,0,0
0:1:23.923,134.31,17.099,0,0.000885,0,0
0:1:25.337,137.01,17.4437,0,0.000885,0,0
0:1:26.730,140.292,17.8643,0,0.000885,0,0
0:1:28.120,142.93,18.1953,0,0.000885,0,0
0:1:29.535,145.159,18.4848,0,0.000885,0,0
0:1:30.932,148.446,18.8985,0,0.000885,0,0
0:1:32.323,151.435,19.2846,0,0.000885,0,0
0:1:33.719,152.783,19.4501,0,0.000885,0,0
0:1:35.132,156.773,19.9603,0,0.000885,0,0
0:1:36.523,159.18,20.2637,0,0.000885,0,0
0:1:37.923,161.817,20.6015,0,0.000885,0,0
0:1:39.331,164.397,20.9325,0,0.000885,0,0
0:1:40.735,167.565,21.3324,0,0.000885,0,0
0:1:42.125,170.029,21.6495,0,0.000885,0,0
0:1:43.515,173.076,22.0356,0,0.000885,0,0
0:1:44.934,175.949,22.4011,0,0.000885,0,0
0:1:46.331,178.178,22.6838,0,0.000885,0,0
0:1:47.723,181.345,23.0905,0,0.000885,0,0
0:1:49.138,183.752,23.3939,0,0.000885,0,0
0:1:50.541,186.274,23.718,0,0.000885,0,0
0:1:51.934,189.734,24.1592,0,0.000885,0,0
0:1:53.323,191.963,24.4419,0,0.000885,0,0
0:1:54.727,194.427,24.7522,0,0.000885,0,0
0:1:56.115,197.888,25.1934,0,0.000885,0,0
0:1:57.513,200.584,25.5382,0,0.000885,0,0
0:1:58.911,202.87,25.8278,0,0.000885,0,0
0:2:0.312,206.037,26.2346,0,0.000885,0,0
0:2:1.714,208.737,26.5793,0,0.000885,0,0
0:2:3.103,210.788,26.8413,0,0.000885,0,0
0:2:4.508,213.839,27.2274,0,0.000885,0,0
0:2:5.915,217.242,27.6618,0,0.000885,0,0
0:2:7.321,219.471,27.9445,0,0.000885,0,0
0:2:8.728,221.873,28.2478,0,0.000885,0,0
0:2:10.123,224.982,28.6477,0,0.000885,0,0
0:2:11.515,227.682,28.9925,0,0.000885,0,0
0:2:12.918,230.671,29.3717,0,0.000885,0,0
0:2:14.330,232.727,29.6337,0,0.000885,0,0
0:2:15.727,236.481,30.1094,0,0.000885,0,0
0:2:17.124,238.647,30.3852,0,0.000885,0,0
0:2:18.525,241.347,30.7299,0,0.000885,0,0
0:2:19.928,244.043,31.0747,0,0.000885,0,0
0:2:21.321,247.152,31.4677,0,0.000885,0,0
0:2:22.726,249.559,31.7779,0,0.000885,0,0
0:2:24.128,252.668,32.1709,0,0.000885,0,0
0:2:25.518,255.19,32.495,0,0.000885,0,0
0:2:26.928,257.828,32.8259,0,0.000885,0,0
0:2:28.328,260.937,33.2258,0,0.000885,0,0
0:2:29.733,263.869,33.5982,0,0.000885,0,0
0:2:31.124,266.275,33.9015,0,0.000885,0,0
0:2:32.517,268.913,34.2394,0,0.000885,0,0
0:2:33.930,271.844,34.6117,0,0.000885,0,0
0:2:35.325,274.718,34.9771,0,0.000885,0,0
0:2:36.715,277.943,35.3908,0,0.000885,0,0
0:2:38.118,279.998,35.6528,0,0.000885,0,0
0:2:39.516,282.756,36.0044,0,0.000885,0,0
0:2:40.926,285.336,36.3285,0,0.000885,0,0
0:2:42.310,288.089,36.6801,0,0.000885,0,0
0:2:43.733,291.025,37.0524,0,0.000885,0,0
0:2:45.128,293.898,37.4178,0,0.000885,0,0
0:2:46.519,296.243,37.7212,0,0.000885,0,0
0:2:47.925,299.588,38.1418,0,0.000885,0,0
0:2:49.336,302.168,38.4727,0,0.000885,0,0
0:2:50.720,304.338,38.7485,0,0.000885,0,0
0:2:52.126,307.506,39.1553,0,0.000885,0,0
0:2:53.517,310.437,39.5276,0,0.000885,0,0
0:2:54.920,312.723,39.8172,0,0.000885,0,0
0:2:56.312,315.89,40.2171,0,0.000885,0,0
0:2:57.708,318.239,40.5205,0,0.000885,0,0
0:2:59.112,321.7,40.9618,0,0.000885,0,0
0:3:0.508,324.222,41.2789,0,0.000885,0,0
0:3:1.919,326.388,41.5547,0,0.000885,0,0
0:3:3.323,329.618,41.9684,0,0.000885,0,0
0:3:4.735,332.255,42.3062,0,0.000885,0,0
0:3:6.136,335.245,42.6854,0,0.000885,0,0
0:3:7.526,337.767,43.0026,0,0.000885,0,0
0:3:8.914,340.467,43.3473,0,0.000885,0,0
0:3:10.315,343.456,43.7334,0,0.000885,0,0
0:3:11.727,346.272,44.092,0,0.000885,0,0
0:3:13.129,348.794,44.4091,0,0.000885,0,0
0:3:14.533,351.432,44.747,0,0.000885,0,0
0:3:15.919,354.19,45.0986,0,0.000885,0,0
0:3:17.330,356.827,45.4296,0,0.000885,0,0
0:3:18.717,359.176,45.7329,0,0.000885,0,0
0:3:20.116,363.34,46.2638,0,0.000885,0,0
0:3:21.529,365.332,46.5189,0,0.000885,0,0
0:3:22.928,367.681,46.8154,0,0.000885,0,0
0:3:24.328,370.612,47.1877,0,0.000885,0,0
0:3:25.729,373.544,47.56,0,0.000885,0,0
0:3:27.131,376.008,47.8772,0,0.000885,0,0
0:3:28.519,379.175,48.2771,0,0.000885,0,0
0:3:29.924,381.697,48.6011,0,0.000885,0,0
0:3:31.320,384.571,48.9666,0,0.000885,0,0
0:3:32.717,386.915,49.263,0,0.000885,0,0
0:3:34.117,390.26,49.6905,0,0.000885,0,0
0:3:35.515,392.604,49.987,0,0.000885,0,0
0:3:36.927,396.007,50.4214,0,0.000885,0,0
0:3:38.317,397.827,50.6558,0,0.000885,0,0
0:3:39.725,401.523,51.1246,0,0.000885,0,0
0:3:41.131,403.458,51.3728,0,0.000885,0,0
0:3:42.532,406.39,51.7452,0,0.000885,0,0
0:3:43.922,409.499,52.1382,0,0.000885,0,0
0:3:45.320,411.843,52.4346,0,0.000885,0,0
0:3:46.723,414.774,52.8138,0,0.000885,0,0
0:3:48.114,417.768,53.1931,0,0.000885,0,0
0:3:49.520,419.819,53.4551,0,0.000885,0,0
0:3:50.905,422.461,53.786,0,0.000885,0,0
0:3:52.287,426.037,54.248,0,0.000885,0,0
0:3:53.677,428.266,54.5306,0,0.000885,0,0
0:3:55.080,431.139,54.8961,0,0.000885,0,0
0:3:56.463,433.662,55.2132,0,0.000885,0,0
0:3:57.843,436.126,55.5304,0,0.000885,0,0
0:3:59.245,439.115,55.9096,0,0.000885,0,0
0:4:0.640,442.167,56.2957,0,0.000885,0,0
0:4:2.028,444.689,56.6197,0,0.000885,0,0
0:4:3.426,447.62,56.9921,0,0.000885,0,0
0:4:4.827,449.969,57.2885,0,0.000885,0,0
0:4:6.240,453.194,57.7022,0,0.000885,0,0
0:4:7.628,455.538,57.9987,0,0.000885,0,0
0:4:9.027,458.176,58.3365,0,0.000885,0,0
0:4:10.423,461.112,58.7089,0,0.000885,0,0
0:4:11.822,463.634,59.0329,0,0.000885,0,0
0:4:13.213,466.156,59.3501,0,0.000885,0,0
0:4:14.617,469.381,59.7638,0,0.000885,0,0
0:4:16.034,472.019,60.1016,0,0.000885,0,0
0:4:17.442,475.07,60.4877,0,0.000885,0,0
0:4:18.828,477.708,60.8255,0,0.000885,0,0
0:4:20.234,480.114,61.1289,0,0.000885,0,0
0:4:21.637,482.868,61.4806,0,0.000885,0,0
0:4:23.037,485.919,61.8667,0,0.000885,0,0
0:4:24.444,488.793,62.2321,0,0.000885,0,0
0:4:25.829,491.786,62.6182,0,0.000885,0,0
0:4:27.212,494.246,62.9284,0,0.000885,0,0
0:4:28.602,496.889,63.2663,0,0.000885,0,0
0:4:30.000,499.411,63.5835,0,0.000885,0,0
0:4:31.384,502.458,63.9765,0,0.000885,0,0
0:4:32.766,504.922,64.2867,0,0.000885,0,0
0:4:34.163,507.266,64.5901,0,0.000885,0,0
0:4:35.555,510.14,64.9555,0,0.000885,0,0
0:4:36.942,513.133,65.3347,0,0.000885,0,0
0:4:38.332,516.123,65.7139,0,0.000885,0,0
0:4:39.738,518.881,66.0656,0,0.000885,0,0
0:4:41.129,521.874,66.4448,0,0.000885,0,0
0:4:42.523,524.748,66.8102,0,0.000885,0,0
0:4:43.921,526.856,67.0791,0,0.000885,0,0
0:4:45.328,530.375,67.5273,0,0.000885,0,0
0:4:46.720,532.897,67.8513,0,0.000885,0,0
0:4:48.114,535.77,68.2167,0,0.000885,0,0
0:4:49.517,537.71,68.4649,0,0.000885,0,0
0:4:50.945,540.112,68.7683,0,0.000885,0,0
0:4:52.345,543.808,69.2372,0,0.000885,0,0
0:4:53.741,546.504,69.5819,0,0.000885,0,0
0:4:55.130,549.146,69.9197,0,0.000885,0,0
0:4:56.528,551.9,70.2714,0,0.000885,0,0
0:4:57.942,554.893,70.6506,0,0.000885,0,0
0:4:59.340,556.535,70.8574,0,0.000885,0,0
0:5:0.724,560.169,71.3263,0,0.000885,0,0
0:5:2.113,562.753,71.6503,0,0.000885,0,0
0:5:3.497,565.627,72.0157,0,0.000885,0,0
0:5:4.902,567.793,72.2915,0,0.000885,0,0
0:5:6.281,571.254,72.7328,0,0.000885,0,0
0:5:7.663,572.958,72.9534,0,0.000885,0,0
0:5:9.060,576.005,73.3395,0,0.000885,0,0
0:5:10.446,579.114,73.7325,0,0.000885,0,0
0:5:11.839,582.339,74.1462,0,0.000885,0,0
0:5:13.230,584.1,74.3669,0,0.000885,0,0
0:5:14.634,587.913,74.8564,0,0.000885,0,0
0:5:16.033,590.377,75.1666,0,0.000885,0,0
0:5:17.425,592.841,75.4838,0,0.000885,0,0
0:5:18.830,595.248,75.7872,0,0.000885,0,0
0:5:20.232,597.712,76.1043,0,0.000885,0,0
0:5:21.622,601.235,76.5525,0,0.000885,0,0
0:5:23.014,603.762,76.8696,0,0.000885,0,0
0:5:24.429,606.755,77.2558,0,0.000885,0,0
0:5:25.833,609.513,77.6074,0,0.000885,0,0
0:5:27.226,611.742,77.8901,0,0.000885,0,0
0:5:28.636,615.38,78.352,0,0.000885,0,0
0:5:30.038,616.968,78.552,0,0.000885,0,0
0:5:31.436,619.962,78.9381,0,0.000885,0,0
0:5:32.829,623.481,79.3862,0,0.000885,0,0
0:5:34.249,625.656,79.662,0,0.000885,0,0
0:5:35.643,628.823,80.0619,0,0.000885,0,0
0:5:37.039,629.174,80.1102,0,0.000885,0,0
0:5:38.428,632.755,80.5652,0,0.000885,0,0
0:5:39.843,636.865,81.0892,0,0.000885,0,0
0:5:41.250,640.21,81.5167,0,0.000885,0,0
0:5:42.399,627.884,79.9447,0,0.000885,0,0