File: DataFile2021-06-08_072457.csv
Test ID:,Date Tested:,Time:,Test Type:,Diameter Avg. (mm):,Cyl. Corr. Factor:,Height (mm):,Age (days):,Weight (kN):,Break Type:,Ramp Rate (MPa/s):,Load at Break (kN):,Stress at Break (MPa):
12,6/8/2021,07:24,Cylinder,100,1,200,0,3.6,3,0.19,160.23,20.4
Sample Time,Load (kN),Stress (MPa),Long. Strain,Trans. Strain,Chan1 Deflection (mm),Chan2 Deflection (mm)
0:0:12.412,5.98286,0.758423,0,0.000885,0,0
0:0:12.911,9.79498,1.24795,0,0.000885,0,0
0:0:13.405,9.32347,1.1859,0,0.000885,0,0
0:0:13.902,8.79858,1.11695,0,0.000885,0,0
0:0:14.396,8.91424,1.13763,0,0.000885,0,0
0:0:14.894,9.61706,1.22727,0,0.000885,0,0
0:0:15.389,9.14999,1.16521,0,0.000885,0,0
0:0:15.886,10.8492,1.37895,0,0.000885,0,0
0:0:16.382,12.4906,1.59269,0,0.000885,0,0
0:0:16.889,13.6071,1.73058,0,0.000885,0,0
0:0:17.384,14.4879,1.84779,0,0.000885,0,0
0:0:17.878,15.8935,2.02706,0,0.000885,0,0
0:0:18.386,16.4228,2.08911,0,0.000885,0,0
0:0:18.890,17.4771,2.22701,0,0.000885,0,0
0:0:19.394,18.767,2.39248,0,0.000885,0,0
0:0:19.892,19.0606,2.42695,0,0.000885,0,0
0:0:20.390,20.5285,2.61311,0,0.000885,0,0
0:0:20.886,21.4093,2.72343,0,0.000885,0,0
0:0:21.383,22.2278,2.82685,0,0.000885,0,0
0:0:21.888,23.3443,2.97164,0,0.000885,0,0
0:0:22.387,24.5764,3.13022,0,0.000885,0,0
0:0:22.893,25.2214,3.21296,0,0.000885,0,0
0:0:23.399,26.8628,3.4198,0,0.000885,0,0
0:0:23.902,28.095,3.57838,0,0.000885,0,0
0:0:24.401,29.5006,3.75764,0,0.000885,0,0
0:0:24.899,30.497,3.88175,0,0.000885,0,0
0:0:25.397,31.2621,3.97827,0,0.000885,0,0
0:0:25.895,32.432,4.12996,0,0.000885,0,0
0:0:26.394,32.8457,4.18512,0,0.000885,0,0
0:0:26.890,34.0778,4.3368,0,0.000885,0,0
0:0:27.388,34.8963,4.44022,0,0.000885,0,0
0:0:27.886,36.0706,4.59191,0,0.000885,0,0
0:0:28.394,36.5377,4.65396,0,0.000885,0,0
0:0:28.896,37.4763,4.77117,0,0.000885,0,0
0:0:29.399,38.2414,4.8677,0,0.000885,0,0
0:0:29.898,39.1799,4.9918,0,0.000885,0,0
0:0:30.395,40.3498,5.13659,0,0.000885,0,0
0:0:30.893,41.2884,5.25381,0,0.000885,0,0
0:0:31.389,42.5206,5.41238,0,0.000885,0,0
0:0:31.886,43.2856,5.50891,0,0.000885,0,0
0:0:32.392,44.927,5.72265,0,0.000885,0,0
0:0:32.890,45.2784,5.76402,0,0.000885,0,0
0:0:33.397,46.3327,5.90191,0,0.000885,0,0
0:0:33.900,48.2677,6.14323,0,0.000885,0,0
0:0:34.404,48.6191,6.19149,0,0.000885,0,0
0:0:34.900,49.5576,6.3087,0,0.000885,0,0
0:0:35.397,50.8521,6.47418,0,0.000885,0,0
0:0:35.893,51.7284,6.58449,0,0.000885,0,0
0:0:36.391,52.4356,6.67413,0,0.000885,0,0
0:0:36.887,53.1963,6.77065,0,0.000885,0,0
0:0:37.385,54.4284,6.92923,0,0.000885,0,0
0:0:37.891,55.1313,7.01886,0,0.000885,0,0
0:0:38.394,55.9542,7.12228,0,0.000885,0,0
0:0:38.896,56.9506,7.25328,0,0.000885,0,0
0:0:39.394,57.7691,7.35671,0,0.000885,0,0
0:0:39.890,58.9434,7.50839,0,0.000885,0,0
0:0:40.388,60.7627,7.73592,0,0.000885,0,0
0:0:40.884,61.7591,7.86002,0,0.000885,0,0
0:0:41.379,62.3463,7.93587,0,0.000885,0,0
0:0:41.876,63.5206,8.08755,0,0.000885,0,0
0:0:42.386,64.1656,8.17029,0,0.000885,0,0
0:0:42.888,65.162,8.29439,0,0.000885,0,0
0:0:43.393,65.9805,8.39781,0,0.000885,0,0
0:0:43.896,66.919,8.52192,0,0.000885,0,0
0:0:44.394,67.7998,8.63224,0,0.000885,0,0
0:0:44.891,68.854,8.77013,0,0.000885,0,0
0:0:45.388,70.2641,8.94939,0,0.000885,0,0
0:0:45.886,71.2027,9.06661,0,0.000885,0,0
0:0:46.393,71.8477,9.14934,0,0.000885,0,0
0:0:46.891,72.7284,9.25966,0,0.000885,0,0
0:0:47.388,73.4312,9.34929,0,0.000885,0,0
0:0:47.894,74.4855,9.48719,0,0.000885,0,0
0:0:48.400,75.8956,9.66645,0,0.000885,0,0
0:0:48.904,77.0076,9.80434,0,0.000885,0,0
0:0:49.408,78.1819,9.95603,0,0.000885,0,0
0:0:49.903,79.0004,10.0595,0,0.000885,0,0
0:0:50.400,80.0013,10.1836,0,0.000885,0,0
0:0:50.896,80.3527,10.2318,0,0.000885,0,0
0:0:51.393,81.3491,10.3559,0,0.000885,0,0
0:0:51.890,82.7547,10.5352,0,0.000885,0,0
0:0:52.395,83.929,10.6869,0,0.000885,0,0
0:0:52.891,84.574,10.7696,0,0.000885,0,0
0:0:53.397,85.5126,10.8868,0,0.000885,0,0
0:0:53.901,86.5668,11.0247,0,0.000885,0,0
0:0:54.406,87.3898,11.1281,0,0.000885,0,0
0:0:54.902,88.5641,11.2729,0,0.000885,0,0
0:0:55.401,89.734,11.4246,0,0.000885,0,0
0:0:55.898,90.8505,11.5694,0,0.000885,0,0
0:0:56.394,91.4376,11.6452,0,0.000885,0,0
0:0:56.889,92.6075,11.79,0,0.000885,0,0
0:0:57.388,93.7819,11.9417,0,0.000885,0,0
0:0:57.895,94.2534,12.0038,0,0.000885,0,0
0:0:58.399,95.3654,12.1417,0,0.000885,0,0
0:0:58.902,96.1261,12.2382,0,0.000885,0,0
0:0:59.399,97.4783,12.4106,0,0.000885,0,0
0:0:59.895,98.3546,12.5209,0,0.000885,0,0
0:1:0.392,99.6491,12.6864,0,0.000885,0,0
0:1:0.888,100.703,12.8242,0,0.000885,0,0
0:1:1.396,101.522,12.9277,0,0.000885,0,0
0:1:1.894,102.58,13.0587,0,0.000885,0,0
0:1:2.391,103.105,13.1276,0,0.000885,0,0
0:1:2.893,103.87,13.2241,0,0.000885,0,0
0:1:3.399,105.103,13.3827,0,0.000885,0,0
0:1:3.903,105.57,13.4448,0,0.000885,0,0
0:1:4.403,107.153,13.6447,0,0.000885,0,0
0:1:4.901,108.092,13.7619,0,0.000885,0,0
0:1:5.399,109.853,13.9895,0,0.000885,0,0
0:1:5.896,110.263,14.0377,0,0.000885,0,0
0:1:6.394,111.201,14.1618,0,0.000885,0,0
0:1:6.892,112.375,14.3066,0,0.000885,0,0
0:1:7.399,114.017,14.5204,0,0.000885,0,0
0:1:7.895,114.132,14.5341,0,0.000885,0,0
0:1:8.403,115.543,14.7134,0,0.000885,0,0
0:1:8.906,116.188,14.7961,0,0.000885,0,0
0:1:9.410,117.3,14.934,0,0.000885,0,0
0:1:9.907,118.007,15.0237,0,0.000885,0,0
0:1:10.405,118.768,15.1202,0,0.000885,0,0
0:1:10.903,119.822,15.2581,0,0.000885,0,0
0:1:11.401,121.054,15.4098,0,0.000885,0,0
0:1:11.900,121.699,15.4925,0,0.000885,0,0
0:1:12.397,122.637,15.6166,0,0.000885,0,0
0:1:12.894,123.754,15.7545,0,0.000885,0,0
0:1:13.398,124.924,15.9062,0,0.000885,0,0
0:1:13.904,126.156,16.0648,0,0.000885,0,0
0:1:14.404,126.921,16.1613,0,0.000885,0,0
0:1:14.904,127.74,16.2647,0,0.000885,0,0
0:1:15.402,128.62,16.375,0,0.000885,0,0
0:1:15.899,129.501,16.4854,0,0.000885,0,0
0:1:16.397,130.44,16.6095,0,0.000885,0,0
0:1:16.893,131.378,16.7267,0,0.000885,0,0
0:1:17.390,132.668,16.8922,0,0.000885,0,0
0:1:17.896,133.665,17.0163,0,0.000885,0,0
0:1:18.401,134.661,17.1473,0,0.000885,0,0
0:1:18.904,135.6,17.2645,0,0.000885,0,0
0:1:19.403,136.009,17.3196,0,0.000885,0,0
0:1:19.900,137.419,17.4989,0,0.000885,0,0
0:1:20.398,138.531,17.6368,0,0.000885,0,0
0:1:20.895,139.238,17.7264,0,0.000885,0,0
0:1:21.394,140.644,17.9057,0,0.000885,0,0
0:1:21.891,141.876,18.0643,0,0.000885,0,0
0:1:22.385,142.463,18.1401,0,0.000885,0,0
0:1:22.894,143.344,18.2504,0,0.000885,0,0
0:1:23.398,144.22,18.3607,0,0.000885,0,0
0:1:23.903,145.395,18.5124,0,0.000885,0,0
0:1:24.401,146.627,18.671,0,0.000885,0,0
0:1:24.897,147.387,18.7675,0,0.000885,0,0
0:1:25.396,149.149,18.9882,0,0.000885,0,0
0:1:25.892,149.442,19.0295,0,0.000885,0,0
0:1:26.390,150.79,19.2019,0,0.000885,0,0
0:1:26.884,151.787,19.326,0,0.000885,0,0
0:1:27.382,152.022,19.3536,0,0.000885,0,0
0:1:27.884,152.961,19.4777,0,0.000885,0,0
0:1:28.393,154.429,19.6638,0,0.000885,0,0
0:1:28.896,154.718,19.6983,0,0.000885,0,0
0:1:29.396,155.483,19.7948,0,0.000885,0,0
0:1:29.893,156.302,19.8983,0,0.000885,0,0
0:1:30.391,157.36,20.0362,0,0.000885,0,0
0:1:30.897,158.415,20.1672,0,0.000885,0,0
0:1:31.394,158.592,20.1947,0,0.000885,0,0
0:1:31.892,159.705,20.3326,0,0.000885,0,0
0:1:32.392,160.821,20.4774,0,0.000885,0,0
0:1:32.898,160.47,20.4292,0,0.000885,0,0
0:1:33.404,159.94,20.3671,0,0.000885,0,0
0:1:33.906,157.302,20.0293,0,0.000885,0,0
0:1:34.408,155.363,19.7811,0,0.000885,0,0
0:1:34.905,155.657,19.8224,0,0.000885,0,0
0:1:35.402,158.063,20.1258,0,0.000885,0,0
0:1:35.898,159.469,20.3051,0,0.000885,0,0
0:1:36.394,158.472,20.1741,0,0.000885,0,0
0:1:36.890,155.19,19.7604,0,0.000885,0,0
0:1:37.394,153.957,19.6018,0,0.000885,0,0
0:1:37.891,153.312,19.5191,0,0.000885,0,0
0:1:38.396,155.19,19.7604,0,0.000885,0,0
0:1:38.901,156.595,19.9396,0,0.000885,0,0
0:1:39.403,157.125,20.0086,0,0.000885,0,0
0:1:39.898,156.422,19.919,0,0.000885,0,0
0:1:40.396,155.599,19.8086,0,0.000885,0,0
0:1:40.891,156.48,19.9258,0,0.000885,0,0
0:1:41.384,156.773,19.9603,0,0.000885,0,0
0:1:41.879,156.773,19.9603,0,0.000885,0,0
0:1:42.377,156.07,19.8707,0,0.000885,0,0
0:1:42.882,154.66,19.6914,0,0.000885,0,0
0:1:43.390,153.779,19.5811,0,0.000885,0,0
0:1:43.892,151.965,19.3467,0,0.000885,0,0
0:1:44.387,149.091,18.9813,0,0.000885,0,0
0:1:44.894,146.92,18.7055,0,0.000885,0,0
0:1:45.391,143.753,18.3056,0,0.000885,0,0
0:1:45.897,139.821,17.8023,0,0.000885,0,0
0:1:46.393,134.839,17.1679,0,0.000885,0,0
0:1:46.899,129.617,16.506,0,0.000885,0,0
0:1:47.395,125.925,16.0303,0,0.000885,0,0
0:1:47.895,120.525,15.3477,0,0.000885,0,0
0:1:48.349,113.372,14.4376,0,0.000885,0,0