File: DataFile2021-06-08_054227.csv
Test ID:,Date Tested:,Time:,Test Type:,Diameter Avg. (mm):,Cyl. Corr. Factor:,Height (mm):,Age (days):,Weight (kN):,Break Type:,Ramp Rate (MPa/s):,Load at Break (kN):,Stress at Break (MPa):
12,6/8/2021,05:42,Cylinder,150,1,300,0,3.6,1,0.24,751.79,42.54
Sample Time,Load (kN),Stress (MPa),Long. Strain,Trans. Strain,Chan1 Deflection (mm),Chan2 Deflection (mm)
0:0:15.412,6.80133,0.386106,0,0.000885,0,0
0:0:16.204,16.0136,0.903213,0,0.000885,0,0
0:0:16.997,15.3063,0.868739,0,0.000885,0,0
0:0:17.787,15.4843,0.875634,0,0.000885,0,0
0:0:18.582,17.1257,0.972161,0,0.000885,0,0
0:0:19.375,21.5249,1.22037,0,0.000885,0,0
0:0:20.174,25.9242,1.46858,0,0.000885,0,0
0:0:20.975,30.9685,1.75127,0,0.000885,0,0
0:0:21.785,33.8999,1.91674,0,0.000885,0,0
0:0:22.585,36.1863,2.04774,0,0.000885,0,0
0:0:23.382,40.1185,2.26838,0,0.000885,0,0
0:0:24.176,44.3977,2.50969,0,0.000885,0,0
0:0:24.971,47.8006,2.70274,0,0.000885,0,0
0:0:25.771,51.3191,2.90269,0,0.000885,0,0
0:0:26.581,55.367,3.13022,0,0.000885,0,0
0:0:27.387,58.7076,3.32327,0,0.000885,0,0
0:0:28.180,61.5812,3.48185,0,0.000885,0,0
0:0:28.978,64.2813,3.64043,0,0.000885,0,0
0:0:29.770,68.3291,3.86796,0,0.000885,0,0
0:0:30.567,72.3147,4.09549,0,0.000885,0,0
0:0:31.370,75.4819,4.27475,0,0.000885,0,0
0:0:32.178,79.2362,4.48159,0,0.000885,0,0
0:0:32.980,82.9905,4.69533,0,0.000885,0,0
0:0:33.772,86.4512,4.89528,0,0.000885,0,0
0:0:34.571,90.379,5.11591,0,0.000885,0,0
0:0:35.364,93.6084,5.29517,0,0.000885,0,0
0:0:36.175,97.3582,5.50891,0,0.000885,0,0
0:0:36.981,100.761,5.70196,0,0.000885,0,0
0:0:37.779,104.337,5.90191,0,0.000885,0,0
0:0:38.575,107.153,6.06049,0,0.000885,0,0
0:0:39.370,110.498,6.25354,0,0.000885,0,0
0:0:40.166,115.191,6.51555,0,0.000885,0,0
0:0:40.965,117.887,6.67413,0,0.000885,0,0
0:0:41.774,121.525,6.87407,0,0.000885,0,0
0:0:42.574,124.986,7.07402,0,0.000885,0,0
0:0:43.374,129.443,7.32223,0,0.000885,0,0
0:0:44.167,132.784,7.51529,0,0.000885,0,0
0:0:44.966,135.542,7.66697,0,0.000885,0,0
0:0:45.760,138.531,7.83934,0,0.000885,0,0
0:0:46.570,143.108,8.10134,0,0.000885,0,0
0:0:47.377,146.155,8.27371,0,0.000885,0,0
0:0:48.171,149.616,8.46676,0,0.000885,0,0
0:0:48.971,153.255,8.6736,0,0.000885,0,0
0:0:49.763,157.24,8.90113,0,0.000885,0,0
0:0:50.564,160.292,9.0735,0,0.000885,0,0
0:0:51.374,163.81,9.26655,0,0.000885,0,0
0:0:52.180,168.152,9.51477,0,0.000885,0,0
0:0:52.975,171.555,9.70782,0,0.000885,0,0
0:0:53.772,174.25,9.8595,0,0.000885,0,0
0:0:54.570,178.24,10.087,0,0.000885,0,0
0:0:55.364,181.581,10.2732,0,0.000885,0,0
0:0:56.173,185.451,10.4938,0,0.000885,0,0
0:0:56.982,188.854,10.6869,0,0.000885,0,0
0:0:57.783,191.669,10.8455,0,0.000885,0,0
0:0:58.572,195.482,11.0592,0,0.000885,0,0
0:0:59.364,199.414,11.2867,0,0.000885,0,0
0:1:0.155,202.754,11.4729,0,0.000885,0,0
0:1:0.951,206.744,11.7004,0,0.000885,0,0
0:1:1.755,210.143,11.8935,0,0.000885,0,0
0:1:2.550,214.075,12.1141,0,0.000885,0,0
0:1:3.344,216.539,12.252,0,0.000885,0,0
0:1:4.128,220,12.4519,0,0.000885,0,0
0:1:4.943,223.692,12.6588,0,0.000885,0,0
0:1:5.740,227.389,12.8656,0,0.000885,0,0
0:1:6.546,231.374,13.0931,0,0.000885,0,0
0:1:7.348,234.484,13.2724,0,0.000885,0,0
0:1:8.148,238.647,13.5068,0,0.000885,0,0
0:1:8.940,241.641,13.6723,0,0.000885,0,0
0:1:9.733,245.511,13.8929,0,0.000885,0,0
0:1:10.529,249.029,14.0929,0,0.000885,0,0
0:1:11.336,252.668,14.2997,0,0.000885,0,0
0:1:12.142,256.244,14.4997,0,0.000885,0,0
0:1:12.934,259.705,14.6996,0,0.000885,0,0
0:1:13.744,262.636,14.8651,0,0.000885,0,0
0:1:14.537,266.391,15.0719,0,0.000885,0,0
0:1:15.333,270.025,15.2788,0,0.000885,0,0
0:1:16.138,273.606,15.4856,0,0.000885,0,0
0:1:16.943,277.124,15.6787,0,0.000885,0,0
0:1:17.734,281.172,15.9131,0,0.000885,0,0
0:1:18.535,284.219,16.0855,0,0.000885,0,0
0:1:19.331,287.8,16.2854,0,0.000885,0,0
0:1:20.135,291.025,16.4716,0,0.000885,0,0
0:1:20.933,294.072,16.6439,0,0.000885,0,0
0:1:21.733,298.004,16.8646,0,0.000885,0,0
0:1:22.528,301.345,17.0507,0,0.000885,0,0
0:1:23.318,305.508,17.2852,0,0.000885,0,0
0:1:24.112,308.853,17.4782,0,0.000885,0,0
0:1:24.898,312.665,17.6919,0,0.000885,0,0
0:1:25.692,315.948,17.8781,0,0.000885,0,0
0:1:26.498,319.645,18.0849,0,0.000885,0,0
0:1:27.300,322.576,18.2573,0,0.000885,0,0
0:1:28.089,326.095,18.4504,0,0.000885,0,0
0:1:28.880,329.382,18.6365,0,0.000885,0,0
0:1:29.672,333.078,18.8503,0,0.000885,0,0
0:1:30.462,337.473,19.0985,0,0.000885,0,0
0:1:31.265,340.876,19.2915,0,0.000885,0,0
0:1:32.064,344.221,19.4777,0,0.000885,0,0
0:1:32.859,347.21,19.6501,0,0.000885,0,0
0:1:33.646,350.378,19.8293,0,0.000885,0,0
0:1:34.439,353.723,20.0155,0,0.000885,0,0
0:1:35.246,358.18,20.2706,0,0.000885,0,0
0:1:36.052,361.698,20.4705,0,0.000885,0,0
0:1:36.854,364.63,20.636,0,0.000885,0,0
0:1:37.645,368.326,20.8429,0,0.000885,0,0
0:1:38.435,372.547,21.0842,0,0.000885,0,0
0:1:39.233,375.715,21.2634,0,0.000885,0,0
0:1:40.028,379.291,21.4634,0,0.000885,0,0
0:1:40.831,382.987,21.6702,0,0.000885,0,0
0:1:41.636,386.332,21.8633,0,0.000885,0,0
0:1:42.439,389.322,22.0287,0,0.000885,0,0
0:1:43.234,392.96,22.2356,0,0.000885,0,0
0:1:44.034,397.24,22.4769,0,0.000885,0,0
0:1:44.845,400.291,22.6493,0,0.000885,0,0
0:1:45.648,403.632,22.8423,0,0.000885,0,0
0:1:46.453,407.092,23.0354,0,0.000885,0,0
0:1:47.254,411.025,23.256,0,0.000885,0,0
0:1:48.050,414.895,23.4766,0,0.000885,0,0
0:1:48.845,418.707,23.6973,0,0.000885,0,0
0:1:49.640,421.522,23.8559,0,0.000885,0,0
0:1:50.445,424.805,24.042,0,0.000885,0,0
0:1:51.245,429.147,24.2833,0,0.000885,0,0
0:1:52.045,431.611,24.4212,0,0.000885,0,0
0:1:52.850,435.129,24.6212,0,0.000885,0,0
0:1:53.648,439.173,24.8556,0,0.000885,0,0
0:1:54.440,442.927,25.0624,0,0.000885,0,0
0:1:55.248,445.801,25.2279,0,0.000885,0,0
0:1:56.054,449.439,25.4348,0,0.000885,0,0
0:1:56.855,453.074,25.6416,0,0.000885,0,0
0:1:57.648,456.828,25.8484,0,0.000885,0,0
0:1:58.447,460.876,26.0829,0,0.000885,0,0
0:1:59.237,464.159,26.269,0,0.000885,0,0
0:2:0.029,467.21,26.4414,0,0.000885,0,0
0:2:0.832,470.671,26.6344,0,0.000885,0,0
0:2:1.638,474.367,26.8413,0,0.000885,0,0
0:2:2.435,478.411,27.0757,0,0.000885,0,0
0:2:3.229,481.929,27.2688,0,0.000885,0,0
0:2:4.046,484.745,27.4342,0,0.000885,0,0
0:2:4.839,488.206,27.6273,0,0.000885,0,0
0:2:5.649,492.311,27.8617,0,0.000885,0,0
0:2:6.455,495.599,28.0479,0,0.000885,0,0
0:2:7.254,499.055,28.2409,0,0.000885,0,0
0:2:8.043,502.929,28.4616,0,0.000885,0,0
0:2:8.847,506.799,28.6822,0,0.000885,0,0
0:2:9.643,510.496,28.889,0,0.000885,0,0
0:2:10.435,513.249,29.0407,0,0.000885,0,0
0:2:11.241,516.768,29.2407,0,0.000885,0,0
0:2:12.044,519.877,29.4199,0,0.000885,0,0
0:2:12.841,523.925,29.6475,0,0.000885,0,0
0:2:13.635,527.501,29.8474,0,0.000885,0,0
0:2:14.424,531.256,30.0611,0,0.000885,0,0
0:2:15.215,534.543,30.2473,0,0.000885,0,0
0:2:16.017,537.999,30.4472,0,0.000885,0,0
0:2:16.822,541.228,30.6265,0,0.000885,0,0
0:2:17.617,545.392,30.8609,0,0.000885,0,0
0:2:18.403,548.733,31.054,0,0.000885,0,0
0:2:19.197,551.784,31.2264,0,0.000885,0,0
0:2:19.984,555.538,31.4401,0,0.000885,0,0
0:2:20.779,559.466,31.6607,0,0.000885,0,0
0:2:21.584,562.633,31.84,0,0.000885,0,0
0:2:22.383,566.445,32.0537,0,0.000885,0,0
0:2:23.174,569.377,32.2192,0,0.000885,0,0
0:2:23.963,572.606,32.4054,0,0.000885,0,0
0:2:24.756,576.592,32.626,0,0.000885,0,0
0:2:25.550,580.11,32.8259,0,0.000885,0,0
0:2:26.354,583.398,33.0121,0,0.000885,0,0
0:2:27.149,587.21,33.2258,0,0.000885,0,0
0:2:27.953,590.786,33.4327,0,0.000885,0,0
0:2:28.751,594.661,33.6533,0,0.000885,0,0
0:2:29.544,597.943,33.8395,0,0.000885,0,0
0:2:30.346,601.644,34.0463,0,0.000885,0,0
0:2:31.158,605.105,34.2394,0,0.000885,0,0
0:2:31.963,608.57,34.4393,0,0.000885,0,0
0:2:32.758,611.328,34.591,0,0.000885,0,0
0:2:33.551,615.087,34.8047,0,0.000885,0,0
0:2:34.355,619.135,35.0392,0,0.000885,0,0
0:2:35.154,623.303,35.2736,0,0.000885,0,0
0:2:35.962,625.473,35.3977,0,0.000885,0,0
0:2:36.768,629.116,35.5976,0,0.000885,0,0
0:2:37.569,633.164,35.8321,0,0.000885,0,0
0:2:38.363,637.039,36.0458,0,0.000885,0,0
0:2:39.158,640.677,36.2526,0,0.000885,0,0
0:2:39.947,644.494,36.4733,0,0.000885,0,0
0:2:40.750,646.958,36.6112,0,0.000885,0,0
0:2:41.559,650.659,36.818,0,0.000885,0,0
0:2:42.363,654.413,37.0317,0,0.000885,0,0
0:2:43.157,657.585,37.211,0,0.000885,0,0
0:2:43.951,661.517,37.4316,0,0.000885,0,0
0:2:44.744,664.978,37.6316,0,0.000885,0,0
0:2:45.544,668.443,37.8246,0,0.000885,0,0
0:2:46.356,671.788,38.0177,0,0.000885,0,0
0:2:47.153,675.547,38.2314,0,0.000885,0,0
0:2:47.948,679.479,38.4521,0,0.000885,0,0
0:2:48.753,682.766,38.6382,0,0.000885,0,0
0:2:49.546,686.583,38.852,0,0.000885,0,0
0:2:50.343,689.341,39.0105,0,0.000885,0,0
0:2:51.152,692.57,39.1898,0,0.000885,0,0
0:2:51.957,696.325,39.4035,0,0.000885,0,0
0:2:52.747,699.67,39.5966,0,0.000885,0,0
0:2:53.544,703.602,39.8172,0,0.000885,0,0
0:2:54.348,707.303,40.0241,0,0.000885,0,0
0:2:55.152,711.057,40.2378,0,0.000885,0,0
0:2:55.961,714.051,40.4102,0,0.000885,0,0
0:2:56.768,717.867,40.6239,0,0.000885,0,0
0:2:57.564,721.448,40.8239,0,0.000885,0,0
0:2:58.359,724.678,41.01,0,0.000885,0,0
0:2:59.152,728.725,41.2375,0,0.000885,0,0
0:2:59.946,731.31,41.3823,0,0.000885,0,0
0:3:0.747,735.242,41.603,0,0.000885,0,0
0:3:1.556,738.587,41.796,0,0.000885,0,0
0:3:2.355,741.35,41.9546,0,0.000885,0,0
0:3:3.149,744.517,42.1339,0,0.000885,0,0
0:3:3.942,747.924,42.3269,0,0.000885,0,0
0:3:4.747,750.975,42.4993,0,0.000885,0,0
0:3:5.547,752.381,42.5751,0,0.000885,0,0
0:3:6.358,745.575,42.189,0,0.000885,0,0
0:3:7.161,705.363,39.9137,0,0.000885,0,0
0:3:7.784,588.148,33.281,0,0.000885,0,0