File: DataFile2021-06-08_070336.csv
Test ID:,Date Tested:,Time:,Test Type:,Diameter Avg. (mm):,Cyl. Corr. Factor:,Height (mm):,Age (days):,Weight (kN):,Break Type:,Ramp Rate (MPa/s):,Load at Break (kN):,Stress at Break (MPa):
12,6/8/2021,07:03,Cylinder,100,1,200,0,3.6,3,0.23,214.02,27.25
Sample Time,Load (kN),Stress (MPa),Long. Strain,Trans. Strain,Chan1 Deflection (mm),Chan2 Deflection (mm)
0:0:5.071,6.15634,0.786002,0,0.000885,0,0
0:0:5.579,7.09491,0.903213,0,0.000885,0,0
0:0:6.076,6.97926,0.889424,0,0.000885,0,0
0:0:6.583,7.21502,0.917003,0,0.000885,0,0
0:0:7.079,8.91424,1.13763,0,0.000885,0,0
0:0:7.585,9.85281,1.25485,0,0.000885,0,0
0:0:8.080,10.4978,1.33758,0,0.000885,0,0
0:0:8.577,11.9657,1.52374,0,0.000885,0,0
0:0:9.086,13.2557,1.68922,0,0.000885,0,0
0:0:9.580,13.4292,1.7099,0,0.000885,0,0
0:0:10.077,14.43,1.83401,0,0.000885,0,0
0:0:10.585,15.72,1.99948,0,0.000885,0,0
0:0:11.089,16.7164,2.13048,0,0.000885,0,0
0:0:11.592,17.5349,2.2339,0,0.000885,0,0
0:0:12.091,18.8871,2.40627,0,0.000885,0,0
0:0:12.588,19.8257,2.52348,0,0.000885,0,0
0:0:13.085,20.6442,2.6269,0,0.000885,0,0
0:0:13.583,21.9342,2.79238,0,0.000885,0,0
0:0:14.080,23.4021,2.97854,0,0.000885,0,0
0:0:14.577,24.4563,3.11643,0,0.000885,0,0
0:0:15.086,25.3371,3.22675,0,0.000885,0,0
0:0:15.591,26.8628,3.4198,0,0.000885,0,0
0:0:16.098,27.5656,3.50943,0,0.000885,0,0
0:0:16.601,28.2106,3.59217,0,0.000885,0,0
0:0:17.100,28.9713,3.6887,0,0.000885,0,0
0:0:17.599,30.1456,3.84038,0,0.000885,0,0
0:0:18.098,30.6171,3.89554,0,0.000885,0,0
0:0:18.596,31.7292,4.04033,0,0.000885,0,0
0:0:19.092,32.7256,4.16443,0,0.000885,0,0
0:0:19.590,33.5485,4.27475,0,0.000885,0,0
0:0:20.089,34.6027,4.40575,0,0.000885,0,0
0:0:20.591,35.8927,4.57122,0,0.000885,0,0
0:0:21.098,36.7734,4.68154,0,0.000885,0,0
0:0:21.601,37.7698,4.81254,0,0.000885,0,0
0:0:22.103,38.8864,4.95044,0,0.000885,0,0
0:0:22.599,39.9984,5.09523,0,0.000885,0,0
0:0:23.098,40.7012,5.18486,0,0.000885,0,0
0:0:23.596,42.0535,5.35723,0,0.000885,0,0
0:0:24.095,43.1077,5.48823,0,0.000885,0,0
0:0:24.592,43.5792,5.55028,0,0.000885,0,0
0:0:25.090,44.5756,5.67439,0,0.000885,0,0
0:0:25.591,45.572,5.80539,0,0.000885,0,0
0:0:26.097,45.8078,5.83296,0,0.000885,0,0
0:0:26.603,47.4492,6.03981,0,0.000885,0,0
0:0:27.106,48.3878,6.16391,0,0.000885,0,0
0:0:27.603,49.6199,6.3156,0,0.000885,0,0
0:0:28.101,50.3806,6.41212,0,0.000885,0,0
0:0:28.597,51.4971,6.55691,0,0.000885,0,0
0:0:29.096,52.3734,6.66723,0,0.000885,0,0
0:0:29.594,53.0806,6.75686,0,0.000885,0,0
0:0:30.092,53.8413,6.85339,0,0.000885,0,0
0:0:30.591,55.367,7.04644,0,0.000885,0,0
0:0:31.098,56.2478,7.16365,0,0.000885,0,0
0:0:31.602,57.302,7.29465,0,0.000885,0,0
0:0:32.107,58.414,7.43944,0,0.000885,0,0
0:0:32.606,59.237,7.54286,0,0.000885,0,0
0:0:33.102,60.2912,7.67386,0,0.000885,0,0
0:0:33.601,61.1141,7.78418,0,0.000885,0,0
0:0:34.098,62.582,7.97034,0,0.000885,0,0
0:0:34.596,63.3427,8.06687,0,0.000885,0,0
0:0:35.092,64.517,8.21166,0,0.000885,0,0
0:0:35.590,65.3355,8.32197,0,0.000885,0,0
0:0:36.096,65.6869,8.36334,0,0.000885,0,0
0:0:36.600,66.8612,8.51503,0,0.000885,0,0
0:0:37.105,68.0934,8.66671,0,0.000885,0,0
0:0:37.601,69.2677,8.81839,0,0.000885,0,0
0:0:38.098,69.7348,8.88045,0,0.000885,0,0
0:0:38.595,70.9091,9.02524,0,0.000885,0,0
0:0:39.094,72.3147,9.2045,0,0.000885,0,0
0:0:39.589,72.6083,9.24587,0,0.000885,0,0
0:0:40.086,74.1341,9.43892,0,0.000885,0,0
0:0:40.593,75.3662,9.5975,0,0.000885,0,0
0:0:41.097,75.4819,9.61129,0,0.000885,0,0
0:0:41.600,76.5984,9.75608,0,0.000885,0,0
0:0:42.099,77.7104,9.89398,0,0.000885,0,0
0:0:42.596,79.0004,10.0595,0,0.000885,0,0
0:0:43.093,79.6454,10.1422,0,0.000885,0,0
0:0:43.591,80.8776,10.3008,0,0.000885,0,0
0:0:44.087,81.5226,10.3766,0,0.000885,0,0
0:0:44.584,82.4033,10.4938,0,0.000885,0,0
0:0:45.081,83.8712,10.68,0,0.000885,0,0
0:0:45.584,84.8676,10.8041,0,0.000885,0,0
0:0:46.093,86.042,10.9558,0,0.000885,0,0
0:0:46.596,87.2741,11.1143,0,0.000885,0,0
0:0:47.096,87.8568,11.1833,0,0.000885,0,0
0:0:47.596,89.0312,11.335,0,0.000885,0,0
0:0:48.091,89.3826,11.3832,0,0.000885,0,0
0:0:48.590,90.2633,11.4936,0,0.000885,0,0
0:0:49.087,91.3175,11.6246,0,0.000885,0,0
0:0:49.586,92.6698,11.7969,0,0.000885,0,0
0:0:50.082,93.6084,11.921,0,0.000885,0,0
0:0:50.593,95.1919,12.121,0,0.000885,0,0
0:0:51.099,95.9526,12.2175,0,0.000885,0,0
0:0:51.604,96.5398,12.2934,0,0.000885,0,0
0:0:52.109,97.2426,12.383,0,0.000885,0,0
0:0:52.606,98.7683,12.576,0,0.000885,0,0
0:0:53.103,99.8225,12.707,0,0.000885,0,0
0:0:53.599,100.877,12.8449,0,0.000885,0,0
0:0:54.096,101.113,12.8725,0,0.000885,0,0
0:0:54.592,101.993,12.9828,0,0.000885,0,0
0:0:55.090,103.283,13.1483,0,0.000885,0,0
0:0:55.586,104.982,13.3689,0,0.000885,0,0
0:0:56.092,105.218,13.3965,0,0.000885,0,0
0:0:56.597,106.393,13.5482,0,0.000885,0,0
0:0:57.101,107.798,13.7275,0,0.000885,0,0
0:0:57.600,108.505,13.8171,0,0.000885,0,0
0:0:58.096,109.324,13.9205,0,0.000885,0,0
0:0:58.593,110.672,14.0929,0,0.000885,0,0
0:0:59.090,111.317,14.1756,0,0.000885,0,0
0:0:59.587,112.375,14.3066,0,0.000885,0,0
0:1:0.085,113.194,14.41,0,0.000885,0,0
0:1:0.591,114.426,14.5686,0,0.000885,0,0
0:1:1.098,114.84,14.6238,0,0.000885,0,0
0:1:1.603,115.952,14.7617,0,0.000885,0,0
0:1:2.101,117.068,14.9065,0,0.000885,0,0
0:1:2.598,118.065,15.0306,0,0.000885,0,0
0:1:3.097,119.061,15.1616,0,0.000885,0,0
0:1:3.595,120.88,15.3891,0,0.000885,0,0
0:1:4.090,121.347,15.4512,0,0.000885,0,0
0:1:4.589,121.819,15.5132,0,0.000885,0,0
0:1:5.086,122.873,15.6442,0,0.000885,0,0
0:1:5.586,123.754,15.7545,0,0.000885,0,0
0:1:6.094,125.338,15.9614,0,0.000885,0,0
0:1:6.597,126.334,16.0855,0,0.000885,0,0
0:1:7.101,127.508,16.2372,0,0.000885,0,0
0:1:7.599,127.918,16.2854,0,0.000885,0,0
0:1:8.098,128.914,16.4164,0,0.000885,0,0
0:1:8.594,129.559,16.4992,0,0.000885,0,0
0:1:9.092,130.613,16.6302,0,0.000885,0,0
0:1:9.588,132.081,16.8163,0,0.000885,0,0
0:1:10.086,133.313,16.9749,0,0.000885,0,0
0:1:10.591,133.9,17.0507,0,0.000885,0,0
0:1:11.098,134.719,17.1542,0,0.000885,0,0
0:1:11.604,135.426,17.2438,0,0.000885,0,0
0:1:12.108,136.48,17.3748,0,0.000885,0,0
0:1:12.605,137.712,17.5334,0,0.000885,0,0
0:1:13.103,139.118,17.7126,0,0.000885,0,0
0:1:13.601,139.883,17.8092,0,0.000885,0,0
0:1:14.098,140.586,17.8988,0,0.000885,0,0
0:1:14.595,141.818,18.0574,0,0.000885,0,0
0:1:15.092,143.166,18.2297,0,0.000885,0,0
0:1:15.599,143.108,18.2228,0,0.000885,0,0
0:1:16.104,144.75,18.4297,0,0.000885,0,0
0:1:16.609,145.452,18.5193,0,0.000885,0,0
0:1:17.107,146.569,18.6641,0,0.000885,0,0
0:1:17.605,147.681,18.802,0,0.000885,0,0
0:1:18.103,148.74,18.9399,0,0.000885,0,0
0:1:18.600,150.087,19.1123,0,0.000885,0,0
0:1:19.097,150.612,19.1743,0,0.000885,0,0
0:1:19.596,151.551,19.2984,0,0.000885,0,0
0:1:20.094,152.61,19.4294,0,0.000885,0,0
0:1:20.596,153.664,19.5673,0,0.000885,0,0
0:1:21.104,154.073,19.6156,0,0.000885,0,0
0:1:21.607,155.719,19.8293,0,0.000885,0,0
0:1:22.108,156.422,19.919,0,0.000885,0,0
0:1:22.606,157.009,19.9879,0,0.000885,0,0
0:1:23.104,158.357,20.1603,0,0.000885,0,0
0:1:23.602,159.002,20.243,0,0.000885,0,0
0:1:24.099,159.825,20.3464,0,0.000885,0,0
0:1:24.599,161.466,20.5602,0,0.000885,0,0
0:1:25.096,162.698,20.7119,0,0.000885,0,0
0:1:25.592,163.281,20.7877,0,0.000885,0,0
0:1:26.099,164.162,20.9049,0,0.000885,0,0
0:1:26.603,165.394,21.0566,0,0.000885,0,0
0:1:27.105,165.923,21.1255,0,0.000885,0,0
0:1:27.604,167.271,21.2979,0,0.000885,0,0
0:1:28.101,167.974,21.3875,0,0.000885,0,0
0:1:28.599,168.619,21.4703,0,0.000885,0,0
0:1:29.096,169.971,21.6426,0,0.000885,0,0
0:1:29.593,171.199,21.8012,0,0.000885,0,0
0:1:30.091,172.493,21.9598,0,0.000885,0,0
0:1:30.588,172.782,22.0012,0,0.000885,0,0
0:1:31.094,174.014,22.1597,0,0.000885,0,0
0:1:31.599,175.304,22.3183,0,0.000885,0,0
0:1:32.104,176.479,22.47,0,0.000885,0,0
0:1:32.600,177.827,22.6424,0,0.000885,0,0
0:1:33.098,178.356,22.7113,0,0.000885,0,0
0:1:33.594,179.117,22.8079,0,0.000885,0,0
0:1:34.092,179.882,22.9044,0,0.000885,0,0
0:1:34.589,180.878,23.0285,0,0.000885,0,0
0:1:35.087,182.168,23.194,0,0.000885,0,0
0:1:35.592,182.64,23.256,0,0.000885,0,0
0:1:36.099,183.636,23.3801,0,0.000885,0,0
0:1:36.604,184.806,23.5318,0,0.000885,0,0
0:1:37.103,186.216,23.7111,0,0.000885,0,0
0:1:37.600,187.034,23.8145,0,0.000885,0,0
0:1:38.098,188.035,23.9386,0,0.000885,0,0
0:1:38.594,188.68,24.0213,0,0.000885,0,0
0:1:39.090,189.677,24.1523,0,0.000885,0,0
0:1:39.589,190.731,24.2833,0,0.000885,0,0
0:1:40.085,191.434,24.373,0,0.000885,0,0
0:1:40.596,192.314,24.4833,0,0.000885,0,0
0:1:41.101,193.369,24.6212,0,0.000885,0,0
0:1:41.603,193.782,24.6763,0,0.000885,0,0
0:1:42.101,194.721,24.7935,0,0.000885,0,0
0:1:42.597,195.833,24.9314,0,0.000885,0,0
0:1:43.090,196.949,25.0762,0,0.000885,0,0
0:1:43.593,198.182,25.2348,0,0.000885,0,0
0:1:44.087,198.707,25.2969,0,0.000885,0,0
0:1:44.590,199.587,25.4141,0,0.000885,0,0
0:1:45.093,199.996,25.4623,0,0.000885,0,0
0:1:45.588,200.997,25.5933,0,0.000885,0,0
0:1:46.091,201.113,25.6071,0,0.000885,0,0
0:1:46.592,201.464,25.6485,0,0.000885,0,0
0:1:47.091,201.58,25.6692,0,0.000885,0,0
0:1:47.582,202.109,25.7312,0,0.000885,0,0
0:1:48.077,203.226,25.876,0,0.000885,0,0
0:1:48.594,203.515,25.9105,0,0.000885,0,0
0:1:49.090,204.454,26.0346,0,0.000885,0,0
0:1:49.593,205.512,26.1656,0,0.000885,0,0
0:1:50.089,207.505,26.4207,0,0.000885,0,0
0:1:50.590,209.56,26.6827,0,0.000885,0,0
0:1:51.094,211.611,26.9447,0,0.000885,0,0
0:1:51.595,212.727,27.0826,0,0.000885,0,0
0:1:52.095,214.017,27.2481,0,0.000885,0,0
0:1:52.591,213.372,27.1653,0,0.000885,0,0
0:1:53.092,212.371,27.0412,0,0.000885,0,0
0:1:53.595,210.614,26.8137,0,0.000885,0,0
0:1:54.087,211.081,26.8758,0,0.000885,0,0
0:1:54.590,210.614,26.8137,0,0.000885,0,0
0:1:55.091,210.263,26.7723,0,0.000885,0,0
0:1:55.593,208.444,26.5379,0,0.000885,0,0
0:1:56.093,205.219,26.1311,0,0.000885,0,0
0:1:56.592,201.874,25.7037,0,0.000885,0,0
0:1:57.082,195.246,24.8625,0,0.000885,0,0
0:1:57.591,188.151,23.9593,0,0.000885,0,0
0:1:58.086,176.95,22.5321,0,0.000885,0,0
0:1:58.592,168.032,21.3944,0,0.000885,0,0
0:1:59.088,154.896,19.719,0,0.000885,0,0
0:1:59.301,151.965,19.3467,0,0.000885,0,0