File: DataFile2021-06-30_054557.csv
Test ID:,Date Tested:,Time:,Test Type:,Diameter Avg. (mm):,Cyl. Corr. Factor:,Height (mm):,Age (days):,Weight (kN):,Break Type:,Ramp Rate (MPa/s):,Load at Break (kN):,Stress at Break (MPa):
12,6/30/2021,05:45,Cylinder,150,1,300,0,3.6,3,0.25,1410.99,79.85
Sample Time,Load (kN),Stress (MPa),Long. Strain,Trans. Strain,Chan1 Deflection (mm),Chan2 Deflection (mm)
0:0:23.413,5.7471,0.324054,0,0.000885,0,0
0:0:24.806,11.4364,0.648107,0,0.000885,0,0
0:0:26.194,16.8321,0.951477,0,0.000885,0,0
0:0:27.586,22.7571,1.28932,0,0.000885,0,0
0:0:28.985,31.0263,1.75816,0,0.000885,0,0
0:0:30.402,37.245,2.1098,0,0.000885,0,0
0:0:31.794,41.9957,2.37869,0,0.000885,0,0
0:0:33.189,48.152,2.72343,0,0.000885,0,0
0:0:34.603,54.4863,3.08196,0,0.000885,0,0
0:0:36.004,61.2298,3.46806,0,0.000885,0,0
0:0:37.395,66.6877,3.77143,0,0.000885,0,0
0:0:38.796,73.1955,4.14375,0,0.000885,0,0
0:0:40.211,80.0013,4.52986,0,0.000885,0,0
0:0:41.605,86.042,4.8677,0,0.000885,0,0
0:0:42.996,92.1405,5.21244,0,0.000885,0,0
0:0:44.406,97.7096,5.5296,0,0.000885,0,0
0:0:45.814,104.106,5.88812,0,0.000885,0,0
0:0:47.208,110.027,6.22597,0,0.000885,0,0
0:0:48.601,116.833,6.61207,0,0.000885,0,0
0:0:50.014,122.58,6.93613,0,0.000885,0,0
0:0:51.416,128.914,7.29465,0,0.000885,0,0
0:0:52.810,134.719,7.6256,0,0.000885,0,0
0:0:54.212,141.992,8.03239,0,0.000885,0,0
0:0:55.620,147.975,8.37024,0,0.000885,0,0
0:0:57.017,153.312,8.6736,0,0.000885,0,0
0:0:58.412,160.056,9.05971,0,0.000885,0,0
0:0:59.822,165.394,9.35619,0,0.000885,0,0
0:1:1.224,172.022,9.7354,0,0.000885,0,0
0:1:2.617,178.472,10.1008,0,0.000885,0,0
0:1:4.011,184.161,10.4249,0,0.000885,0,0
0:1:5.428,192.786,10.9075,0,0.000885,0,0
0:1:6.813,198.764,11.2453,0,0.000885,0,0
0:1:8.199,203.399,11.5073,0,0.000885,0,0
0:1:9.600,209.031,11.8314,0,0.000885,0,0
0:1:10.988,215.832,12.2106,0,0.000885,0,0
0:1:12.375,221.815,12.5554,0,0.000885,0,0
0:1:13.758,227.682,12.8863,0,0.000885,0,0
0:1:15.165,234.484,13.2724,0,0.000885,0,0
0:1:16.557,239.937,13.5758,0,0.000885,0,0
0:1:17.956,246.214,13.9343,0,0.000885,0,0
0:1:19.367,253.077,14.3204,0,0.000885,0,0
0:1:20.764,258.709,14.6376,0,0.000885,0,0
0:1:22.147,264.571,14.9685,0,0.000885,0,0
0:1:23.540,270.612,15.3133,0,0.000885,0,0
0:1:24.948,277.476,15.6994,0,0.000885,0,0
0:1:26.350,283.574,16.0441,0,0.000885,0,0
0:1:27.737,289.793,16.3957,0,0.000885,0,0
0:1:29.131,294.953,16.6922,0,0.000885,0,0
0:1:30.529,301.229,17.0438,0,0.000885,0,0
0:1:31.914,307.621,17.4093,0,0.000885,0,0
0:1:33.298,314.658,17.8092,0,0.000885,0,0
0:1:34.696,320.054,18.1125,0,0.000885,0,0
0:1:36.087,325.921,18.4435,0,0.000885,0,0
0:1:37.474,333.43,18.871,0,0.000885,0,0
0:1:38.865,338.59,19.1605,0,0.000885,0,0
0:1:40.263,344.573,19.4984,0,0.000885,0,0
0:1:41.660,350.671,19.8431,0,0.000885,0,0
0:1:43.062,357.477,20.2292,0,0.000885,0,0
0:1:44.463,363.282,20.5602,0,0.000885,0,0
0:1:45.864,369.79,20.9256,0,0.000885,0,0
0:1:47.247,375.95,21.2772,0,0.000885,0,0
0:1:48.628,380.937,21.5599,0,0.000885,0,0
0:1:50.037,387.738,21.9391,0,0.000885,0,0
0:1:51.423,393.957,22.2908,0,0.000885,0,0
0:1:52.803,400.585,22.67,0,0.000885,0,0
0:1:54.205,406.799,23.0216,0,0.000885,0,0
0:1:55.598,413.133,23.3801,0,0.000885,0,0
0:1:56.981,418.177,23.6628,0,0.000885,0,0
0:1:58.363,424.805,24.042,0,0.000885,0,0
0:1:59.771,430.966,24.3868,0,0.000885,0,0
0:2:1.160,436.887,24.7246,0,0.000885,0,0
0:2:2.550,443.75,25.1107,0,0.000885,0,0
0:2:3.948,448.737,25.3934,0,0.000885,0,0
0:2:5.347,455.538,25.7795,0,0.000885,0,0
0:2:6.760,462.224,26.1587,0,0.000885,0,0
0:2:8.161,467.619,26.4621,0,0.000885,0,0
0:2:9.568,474.305,26.8413,0,0.000885,0,0
0:2:10.966,480.933,27.2136,0,0.000885,0,0
0:2:12.357,485.861,27.4963,0,0.000885,0,0
0:2:13.760,492.489,27.8686,0,0.000885,0,0
0:2:15.157,498.766,28.2271,0,0.000885,0,0
0:2:16.551,505.216,28.5926,0,0.000885,0,0
0:2:17.965,511.314,28.9373,0,0.000885,0,0
0:2:19.362,517.533,29.2889,0,0.000885,0,0
0:2:20.764,523.867,29.6475,0,0.000885,0,0
0:2:22.157,529.908,29.9853,0,0.000885,0,0
0:2:23.541,535.303,30.2887,0,0.000885,0,0
0:2:24.946,542.105,30.6748,0,0.000885,0,0
0:2:26.357,548.266,31.0264,0,0.000885,0,0
0:2:27.764,554.364,31.3711,0,0.000885,0,0
0:2:29.154,560.525,31.7159,0,0.000885,0,0
0:2:30.553,566.623,32.0675,0,0.000885,0,0
0:2:31.954,573.073,32.426,0,0.000885,0,0
0:2:33.340,580.173,32.8328,0,0.000885,0,0
0:2:34.743,585.506,33.1362,0,0.000885,0,0
0:2:36.136,591.022,33.4465,0,0.000885,0,0
0:2:37.526,597.303,33.7981,0,0.000885,0,0
0:2:38.932,604.055,34.1842,0,0.000885,0,0
0:2:40.335,610.1,34.522,0,0.000885,0,0
0:2:41.721,616.088,34.8668,0,0.000885,0,0
0:2:43.113,622.662,35.2322,0,0.000885,0,0
0:2:44.524,628.707,35.5769,0,0.000885,0,0
0:2:45.921,635.339,35.9562,0,0.000885,0,0
0:2:47.310,640.918,36.2664,0,0.000885,0,0
0:2:48.708,647.198,36.625,0,0.000885,0,0
0:2:50.120,652.777,36.9421,0,0.000885,0,0
0:2:51.506,659.351,37.3144,0,0.000885,0,0
0:2:52.899,665.632,37.6661,0,0.000885,0,0
0:2:54.303,672.144,38.0384,0,0.000885,0,0
0:2:55.707,678.194,38.3762,0,0.000885,0,0
0:2:57.097,683.652,38.6865,0,0.000885,0,0
0:2:58.492,689.519,39.0174,0,0.000885,0,0
0:2:59.906,696.093,39.3897,0,0.000885,0,0
0:3:1.293,702.668,39.7621,0,0.000885,0,0
0:3:2.683,708.597,40.0999,0,0.000885,0,0
0:3:4.089,714.82,40.4515,0,0.000885,0,0
0:3:5.492,721.631,40.8376,0,0.000885,0,0
0:3:6.879,727.204,41.1548,0,0.000885,0,0
0:3:8.270,733.721,41.5202,0,0.000885,0,0
0:3:9.680,739.708,41.8581,0,0.000885,0,0
0:3:11.077,746.167,42.2235,0,0.000885,0,0
0:3:12.464,752.448,42.582,0,0.000885,0,0
0:3:13.873,758.373,42.913,0,0.000885,0,0
0:3:15.279,765.067,43.2922,0,0.000885,0,0
0:3:16.668,770.877,43.6231,0,0.000885,0,0
0:3:18.067,776.571,43.9472,0,0.000885,0,0
0:3:19.481,783.087,44.3126,0,0.000885,0,0
0:3:20.878,788.665,44.6298,0,0.000885,0,0
0:3:22.263,795.004,44.9883,0,0.000885,0,0
0:3:23.660,801.636,45.3606,0,0.000885,0,0
0:3:25.069,807.566,45.6985,0,0.000885,0,0
0:3:26.460,813.553,46.0363,0,0.000885,0,0
0:3:27.852,819.95,46.4017,0,0.000885,0,0
0:3:29.258,825.995,46.7396,0,0.000885,0,0
0:3:30.666,832.044,47.0843,0,0.000885,0,0
0:3:32.060,838.089,47.429,0,0.000885,0,0
0:3:33.470,844.78,47.8014,0,0.000885,0,0
0:3:34.884,851.06,48.1599,0,0.000885,0,0
0:3:36.276,857.048,48.4977,0,0.000885,0,0
0:3:37.669,863.271,48.8494,0,0.000885,0,0
0:3:39.066,869.374,49.1941,0,0.000885,0,0
0:3:40.474,875.833,49.5595,0,0.000885,0,0
0:3:41.873,881.878,49.9043,0,0.000885,0,0
0:3:43.263,887.981,50.249,0,0.000885,0,0
0:3:44.677,894.324,50.6075,0,0.000885,0,0
0:3:46.062,900.836,50.9798,0,0.000885,0,0
0:3:47.453,905.769,51.2556,0,0.000885,0,0
0:3:48.856,913.046,51.6693,0,0.000885,0,0
0:3:50.268,919.092,52.0072,0,0.000885,0,0
0:3:51.665,925.079,52.3519,0,0.000885,0,0
0:3:53.058,931.947,52.738,0,0.000885,0,0
0:3:54.463,937.583,53.0552,0,0.000885,0,0
0:3:55.879,943.922,53.4137,0,0.000885,0,0
0:3:57.267,949.678,53.7377,0,0.000885,0,0
0:3:58.672,956.483,54.1238,0,0.000885,0,0
0:4:0.086,962.061,54.441,0,0.000885,0,0
0:4:1.473,968.809,54.8202,0,0.000885,0,0
0:4:2.876,974.797,55.165,0,0.000885,0,0
0:4:4.284,981.02,55.5166,0,0.000885,0,0
0:4:5.679,987.358,55.8751,0,0.000885,0,0
0:4:7.068,992.349,56.1578,0,0.000885,0,0
0:4:8.461,999.511,56.5577,0,0.000885,0,0
0:4:9.874,1005.91,56.9231,0,0.000885,0,0
0:4:11.260,1011.6,57.2472,0,0.000885,0,0
0:4:12.682,1018.24,57.6195,0,0.000885,0,0
0:4:14.083,1024.4,57.9711,0,0.000885,0,0
0:4:15.486,1030.97,58.3434,0,0.000885,0,0
0:4:16.875,1036.67,58.6606,0,0.000885,0,0
0:4:18.280,1042.54,58.9984,0,0.000885,0,0
0:4:19.696,1049.7,59.3983,0,0.000885,0,0
0:4:21.083,1055.1,59.7086,0,0.000885,0,0
0:4:22.474,1061.38,60.0602,0,0.000885,0,0
0:4:23.887,1067.31,60.3981,0,0.000885,0,0
0:4:25.291,1074.59,60.8118,0,0.000885,0,0
0:4:26.679,1080.22,61.1289,0,0.000885,0,0
0:4:28.082,1086.38,61.4737,0,0.000885,0,0
0:4:29.491,1092.43,61.8184,0,0.000885,0,0
0:4:30.885,1098.24,62.1493,0,0.000885,0,0
0:4:32.274,1104.23,62.4872,0,0.000885,0,0
0:4:33.678,1110.92,62.8664,0,0.000885,0,0
0:4:35.091,1117.5,63.2387,0,0.000885,0,0
0:4:36.478,1123.78,63.5903,0,0.000885,0,0
0:4:37.880,1129.53,63.9213,0,0.000885,0,0
0:4:39.288,1135.52,64.2591,0,0.000885,0,0
0:4:40.682,1142.09,64.6315,0,0.000885,0,0
0:4:42.081,1147.37,64.9279,0,0.000885,0,0
0:4:43.486,1154.3,65.3209,0,0.000885,0,0
0:4:44.898,1160.47,65.6657,0,0.000885,0,0
0:4:46.287,1166.33,66.0035,0,0.000885,0,0
0:4:47.679,1172.61,66.3551,0,0.000885,0,0
0:4:49.091,1179.25,66.7344,0,0.000885,0,0
0:4:50.493,1185.12,67.0653,0,0.000885,0,0
0:4:51.883,1191.28,67.41,0,0.000885,0,0
0:4:53.285,1197.03,67.741,0,0.000885,0,0
0:4:54.693,1203.84,68.1202,0,0.000885,0,0
0:4:56.090,1210.13,68.4787,0,0.000885,0,0
0:4:57.478,1215.7,68.7959,0,0.000885,0,0
0:4:58.895,1222.98,69.2096,0,0.000885,0,0
0:5:0.298,1228.61,69.5267,0,0.000885,0,0
0:5:1.686,1234.01,69.8301,0,0.000885,0,0
0:5:3.083,1241.06,70.23,0,0.000885,0,0
0:5:4.495,1247.22,70.5816,0,0.000885,0,0
0:5:5.891,1252.8,70.8919,0,0.000885,0,0
0:5:7.281,1259.31,71.2642,0,0.000885,0,0
0:5:8.689,1266.36,71.6641,0,0.000885,0,0
0:5:10.097,1271.05,71.9261,0,0.000885,0,0
0:5:11.490,1277.86,72.3122,0,0.000885,0,0
0:5:12.888,1284.32,72.6776,0,0.000885,0,0
0:5:14.297,1290.25,73.0155,0,0.000885,0,0
0:5:15.693,1296.71,73.3809,0,0.000885,0,0
0:5:17.086,1302.87,73.7256,0,0.000885,0,0
0:5:18.486,1308.09,74.0221,0,0.000885,0,0
0:5:19.899,1314.55,74.3875,0,0.000885,0,0
0:5:21.289,1321.06,74.7599,0,0.000885,0,0
0:5:22.683,1327.7,75.1322,0,0.000885,0,0
0:5:24.088,1333.57,75.4631,0,0.000885,0,0
0:5:25.493,1339.61,75.8079,0,0.000885,0,0
0:5:26.887,1346.25,76.1802,0,0.000885,0,0
0:5:28.286,1351.71,76.4904,0,0.000885,0,0
0:5:29.699,1356.99,76.7869,0,0.000885,0,0
0:5:31.091,1362.51,77.1041,0,0.000885,0,0
0:5:32.482,1370.72,77.566,0,0.000885,0,0
0:5:33.890,1377.18,77.9314,0,0.000885,0,0
0:5:35.295,1383.87,78.3107,0,0.000885,0,0
0:5:36.689,1388.8,78.5933,0,0.000885,0,0
0:5:38.090,1394.32,78.9036,0,0.000885,0,0
0:5:39.495,1400.54,79.2552,0,0.000885,0,0
0:5:40.892,1408.17,79.6896,0,0.000885,0,0
0:5:42.282,1405.36,79.5241,0,0.000885,0,0
0:5:43.694,1247.57,70.5954,0,0.000885,0,0
0:5:45.093,1247.87,70.6161,0,0.000885,0,0
0:5:46.490,1259.08,71.2504,0,0.000885,0,0
0:5:47.887,1257.37,71.1539,0,0.000885,0,0
0:5:47.974,1257.37,71.1539,0,0.000885,0,0