File: DataFile2021-07-15_045417.csv
Test ID:,Date Tested:,Time:,Test Type:,Diameter Avg. (mm):,Cyl. Corr. Factor:,Height (mm):,Age (days):,Weight (kN):,Break Type:,Ramp Rate (MPa/s):,Load at Break (kN):,Stress at Break (MPa):
12,7/15/2021,04:54,Cylinder,150,1,300,0,3.6,3,0.25,1703.48,96.4
Sample Time,Load (kN),Stress (MPa),Long. Strain,Trans. Strain,Chan1 Deflection (mm),Chan2 Deflection (mm)
0:0:12.151,5.63145,0.317159,0,0.000885,0,0
0:0:13.836,12.2593,0.69637,0,0.000885,0,0
0:0:15.527,19.7634,1.11695,0,0.000885,0,0
0:0:17.219,27.3877,1.55132,0,0.000885,0,0
0:0:18.930,35.5991,2.01327,0,0.000885,0,0
0:0:20.626,44.5756,2.52348,0,0.000885,0,0
0:0:22.321,50.8521,2.87511,0,0.000885,0,0
0:0:24.035,57.947,3.2819,0,0.000885,0,0
0:0:25.725,65.162,3.6887,0,0.000885,0,0
0:0:27.420,73.4891,4.15754,0,0.000885,0,0
0:0:29.138,80.9398,4.57812,0,0.000885,0,0
0:0:30.826,88.444,5.00559,0,0.000885,0,0
0:0:32.520,96.1261,5.43996,0,0.000885,0,0
0:0:34.236,103.105,5.83296,0,0.000885,0,0
0:0:35.927,110.672,6.26044,0,0.000885,0,0
0:0:37.626,117.713,6.66034,0,0.000885,0,0
0:0:39.335,125.453,7.1016,0,0.000885,0,0
0:0:41.028,133.429,7.54976,0,0.000885,0,0
0:0:42.726,141.173,7.99102,0,0.000885,0,0
0:0:44.434,148.504,8.40471,0,0.000885,0,0
0:0:46.126,155.835,8.81839,0,0.000885,0,0
0:0:47.822,163.401,9.24587,0,0.000885,0,0
0:0:49.531,170.554,9.65266,0,0.000885,0,0
0:0:51.225,179.001,10.1284,0,0.000885,0,0
0:0:52.923,185.744,10.5145,0,0.000885,0,0
0:0:54.633,192.666,10.9006,0,0.000885,0,0
0:0:56.314,200.526,11.3488,0,0.000885,0,0
0:0:58.015,208.386,11.79,0,0.000885,0,0
0:0:59.712,216.304,12.2382,0,0.000885,0,0
0:1:1.413,222.989,12.6174,0,0.000885,0,0
0:1:3.115,230.498,13.0449,0,0.000885,0,0
0:1:4.812,238.474,13.493,0,0.000885,0,0
0:1:6.504,245.689,13.8998,0,0.000885,0,0
0:1:8.204,253.077,14.3204,0,0.000885,0,0
0:1:9.902,260.644,14.7479,0,0.000885,0,0
0:1:11.602,268.441,15.1892,0,0.000885,0,0
0:1:13.300,275.421,15.589,0,0.000885,0,0
0:1:15.005,283.752,16.0579,0,0.000885,0,0
0:1:16.704,290.496,16.4371,0,0.000885,0,0
0:1:18.402,298.471,16.8922,0,0.000885,0,0
0:1:20.106,305.393,17.2852,0,0.000885,0,0
0:1:21.802,313.195,17.7264,0,0.000885,0,0
0:1:23.514,321.522,18.1953,0,0.000885,0,0
0:1:25.208,328.092,18.5676,0,0.000885,0,0
0:1:26.897,336.125,19.0226,0,0.000885,0,0
0:1:28.606,343.163,19.4225,0,0.000885,0,0
0:1:30.290,350.729,19.85,0,0.000885,0,0
0:1:31.969,358.295,20.2775,0,0.000885,0,0
0:1:33.671,366.449,20.7394,0,0.000885,0,0
0:1:35.356,372.899,21.1049,0,0.000885,0,0
0:1:37.035,380.937,21.5599,0,0.000885,0,0
0:1:38.742,388.325,21.9736,0,0.000885,0,0
0:1:40.422,395.598,22.3873,0,0.000885,0,0
0:1:42.119,403.044,22.8079,0,0.000885,0,0
0:1:43.826,410.495,23.2284,0,0.000885,0,0
0:1:45.511,418.004,23.6559,0,0.000885,0,0
0:1:47.191,425.979,24.1041,0,0.000885,0,0
0:1:48.896,432.723,24.4902,0,0.000885,0,0
0:1:50.596,440.934,24.9521,0,0.000885,0,0
0:1:52.301,447.678,25.3313,0,0.000885,0,0
0:1:54.010,455.654,25.7864,0,0.000885,0,0
0:1:55.709,463.34,26.2208,0,0.000885,0,0
0:1:57.402,470.555,26.6276,0,0.000885,0,0
0:1:59.111,478.117,27.055,0,0.000885,0,0
0:2:0.811,485.568,27.4756,0,0.000885,0,0
0:2:2.513,493.25,27.91,0,0.000885,0,0
0:2:4.213,500.638,28.3306,0,0.000885,0,0
0:2:5.924,508.619,28.7787,0,0.000885,0,0
0:2:7.605,515.478,29.1717,0,0.000885,0,0
0:2:9.306,523.458,29.6199,0,0.000885,0,0
0:2:10.985,530.495,30.0198,0,0.000885,0,0
0:2:12.668,538.119,30.4541,0,0.000885,0,0
0:2:14.368,545.334,30.8609,0,0.000885,0,0
0:2:16.049,552.838,31.2815,0,0.000885,0,0
0:2:17.742,560.169,31.7021,0,0.000885,0,0
0:2:19.435,567.793,32.1296,0,0.000885,0,0
0:2:21.122,574.95,32.5364,0,0.000885,0,0
0:2:22.826,582.753,32.9776,0,0.000885,0,0
0:2:24.519,589.674,33.3706,0,0.000885,0,0
0:2:26.211,597.654,33.8188,0,0.000885,0,0
0:2:27.909,605.403,34.26,0,0.000885,0,0
0:2:29.624,612.565,34.6668,0,0.000885,0,0
0:2:31.316,620.723,35.1288,0,0.000885,0,0
0:2:33.022,627.826,35.5287,0,0.000885,0,0
0:2:34.715,635.691,35.9699,0,0.000885,0,0
0:2:36.412,642.323,36.3492,0,0.000885,0,0
0:2:38.117,650.601,36.818,0,0.000885,0,0
0:2:39.812,657.176,37.1903,0,0.000885,0,0
0:2:41.522,666.041,37.6867,0,0.000885,0,0
0:2:43.226,673.261,38.1004,0,0.000885,0,0
0:2:44.921,680.48,38.5072,0,0.000885,0,0
0:2:46.611,688.344,38.9554,0,0.000885,0,0
0:2:48.337,694.977,39.3277,0,0.000885,0,0
0:2:50.026,703.428,39.8034,0,0.000885,0,0
0:2:51.712,710.417,40.2033,0,0.000885,0,0
0:2:53.422,717.4,40.5963,0,0.000885,0,0
0:2:55.112,725.558,41.0583,0,0.000885,0,0
0:2:56.800,732.662,41.4582,0,0.000885,0,0
0:2:58.508,740.527,41.9063,0,0.000885,0,0
0:3:0.210,747.75,42.3131,0,0.000885,0,0
0:3:1.910,755.909,42.7751,0,0.000885,0,0
0:3:3.616,762.425,43.1474,0,0.000885,0,0
0:3:5.318,770.877,43.6231,0,0.000885,0,0
0:3:7.005,777.273,43.9817,0,0.000885,0,0
0:3:8.723,785.494,44.4505,0,0.000885,0,0
0:3:10.416,793.358,44.8918,0,0.000885,0,0
0:3:12.114,800.226,45.2848,0,0.000885,0,0
0:3:13.830,808.384,45.7467,0,0.000885,0,0
0:3:15.516,815.137,46.1259,0,0.000885,0,0
0:3:17.211,823.41,46.5948,0,0.000885,0,0
0:3:18.928,831.043,47.0291,0,0.000885,0,0
0:3:20.625,838.085,47.429,0,0.000885,0,0
0:3:22.315,846.012,47.8772,0,0.000885,0,0
0:3:24.023,853.116,48.2771,0,0.000885,0,0
0:3:25.721,860.451,48.6908,0,0.000885,0,0
0:3:27.413,868.435,49.1458,0,0.000885,0,0
0:3:29.120,875.535,49.5457,0,0.000885,0,0
0:3:30.809,882.874,49.9594,0,0.000885,0,0
0:3:32.512,891.032,50.4214,0,0.000885,0,0
0:3:34.217,898.545,50.8488,0,0.000885,0,0
0:3:35.910,906,51.2694,0,0.000885,0,0
0:3:37.606,913.34,51.6831,0,0.000885,0,0
0:3:39.315,920.559,52.0899,0,0.000885,0,0
0:3:41.014,928.424,52.5381,0,0.000885,0,0
0:3:42.715,935.408,52.9311,0,0.000885,0,0
0:3:44.415,943.277,53.3792,0,0.000885,0,0
0:3:46.121,950.905,53.8136,0,0.000885,0,0
0:3:47.824,958.125,54.2204,0,0.000885,0,0
0:3:49.523,965.758,54.6478,0,0.000885,0,0
0:3:51.209,973.387,55.0822,0,0.000885,0,0
0:3:52.918,980.842,55.5028,0,0.000885,0,0
0:3:54.619,988.061,55.9096,0,0.000885,0,0
0:3:56.316,996.161,56.3715,0,0.000885,0,0
0:3:58.018,1003.97,56.8128,0,0.000885,0,0
0:3:59.717,1010.9,57.2058,0,0.000885,0,0
0:4:1.416,1018.47,57.6333,0,0.000885,0,0
0:4:3.124,1025.75,58.047,0,0.000885,0,0
0:4:4.836,1033.62,58.4882,0,0.000885,0,0
0:4:6.539,1041.24,58.9226,0,0.000885,0,0
0:4:8.246,1048.23,59.3156,0,0.000885,0,0
0:4:9.936,1056.39,59.7775,0,0.000885,0,0
0:4:11.636,1063.14,60.1637,0,0.000885,0,0
0:4:13.345,1071.53,60.6394,0,0.000885,0,0
0:4:15.035,1078.52,61.0324,0,0.000885,0,0
0:4:16.723,1085.62,61.4323,0,0.000885,0,0
0:4:18.433,1093.43,61.8736,0,0.000885,0,0
0:4:20.133,1100.82,62.2941,0,0.000885,0,0
0:4:21.823,1108.1,62.7078,0,0.000885,0,0
0:4:23.531,1116.14,63.1629,0,0.000885,0,0
0:4:25.218,1123.89,63.5972,0,0.000885,0,0
0:4:26.909,1131.29,64.0178,0,0.000885,0,0
0:4:28.616,1139.04,64.4591,0,0.000885,0,0
0:4:30.325,1145.38,64.8176,0,0.000885,0,0
0:4:32.024,1153.71,65.2865,0,0.000885,0,0
0:4:33.740,1161.76,65.7415,0,0.000885,0,0
0:4:35.433,1168.27,66.1138,0,0.000885,0,0
0:4:37.119,1176.14,66.5551,0,0.000885,0,0
0:4:38.836,1183.71,66.9826,0,0.000885,0,0
0:4:40.522,1191.51,67.4238,0,0.000885,0,0
0:4:42.237,1198.38,67.8168,0,0.000885,0,0
0:4:43.954,1206.37,68.265,0,0.000885,0,0
0:4:45.641,1214,68.6994,0,0.000885,0,0
0:4:47.335,1221.21,69.1062,0,0.000885,0,0
0:4:49.041,1229.14,69.5543,0,0.000885,0,0
0:4:50.740,1236.48,69.968,0,0.000885,0,0
0:4:52.432,1244.17,70.4024,0,0.000885,0,0
0:4:54.141,1251.39,70.8161,0,0.000885,0,0
0:4:55.830,1258.84,71.2366,0,0.000885,0,0
0:4:57.539,1265.77,71.6296,0,0.000885,0,0
0:4:59.249,1273.52,72.064,0,0.000885,0,0
0:5:0.941,1281.62,72.526,0,0.000885,0,0
0:5:2.626,1288.72,72.9258,0,0.000885,0,0
0:5:4.336,1296.94,73.3947,0,0.000885,0,0
0:5:6.025,1303.51,73.767,0,0.000885,0,0
0:5:7.747,1311.79,74.229,0,0.000885,0,0
0:5:9.444,1318.13,74.5875,0,0.000885,0,0
0:5:11.130,1326.05,75.0425,0,0.000885,0,0
0:5:12.829,1333.63,75.47,0,0.000885,0,0
0:5:14.528,1341.37,75.9044,0,0.000885,0,0
0:5:16.246,1349.3,76.3525,0,0.000885,0,0
0:5:17.947,1355.64,76.7111,0,0.000885,0,0
0:5:19.648,1364.5,77.2144,0,0.000885,0,0
0:5:21.334,1371.31,77.6005,0,0.000885,0,0
0:5:23.033,1378.7,78.0211,0,0.000885,0,0
0:5:24.745,1386.51,78.4623,0,0.000885,0,0
0:5:26.442,1394.14,78.8898,0,0.000885,0,0
0:5:28.149,1401.36,79.3035,0,0.000885,0,0
0:5:29.844,1408.88,79.7241,0,0.000885,0,0
0:5:31.539,1416.51,80.1584,0,0.000885,0,0
0:5:33.243,1423.73,80.5652,0,0.000885,0,0
0:5:34.941,1431.48,81.0065,0,0.000885,0,0
0:5:36.632,1438.99,81.4271,0,0.000885,0,0
0:5:38.336,1446.97,81.8821,0,0.000885,0,0
0:5:40.044,1454.25,82.2958,0,0.000885,0,0
0:5:41.726,1461.24,82.6888,0,0.000885,0,0
0:5:43.435,1469.34,83.1508,0,0.000885,0,0
0:5:45.125,1476.26,83.5369,0,0.000885,0,0
0:5:46.840,1484.26,83.9919,0,0.000885,0,0
0:5:48.548,1491.68,84.4125,0,0.000885,0,0
0:5:50.235,1498.86,84.8193,0,0.000885,0,0
0:5:51.921,1506.23,85.233,0,0.000885,0,0
0:5:53.624,1514.35,85.6949,0,0.000885,0,0
0:5:55.333,1521.77,86.1155,0,0.000885,0,0
0:5:57.022,1528.89,86.5154,0,0.000885,0,0
0:5:58.728,1536.49,86.9498,0,0.000885,0,0
0:6:0.434,1543.73,87.3566,0,0.000885,0,0
0:6:2.124,1551.98,87.8254,0,0.000885,0,0
0:6:3.833,1558.87,88.2115,0,0.000885,0,0
0:6:5.538,1566.93,88.6735,0,0.000885,0,0
0:6:7.247,1574.65,89.1078,0,0.000885,0,0
0:6:8.960,1581.89,89.5146,0,0.000885,0,0
0:6:10.644,1589.6,89.9559,0,0.000885,0,0
0:6:12.330,1596.43,90.342,0,0.000885,0,0
0:6:14.048,1604.32,90.7833,0,0.000885,0,0
0:6:15.730,1611.63,91.197,0,0.000885,0,0
0:6:17.449,1619.34,91.6382,0,0.000885,0,0
0:6:19.153,1627.05,92.0726,0,0.000885,0,0
0:6:20.850,1634.24,92.4794,0,0.000885,0,0
0:6:22.546,1642.36,92.9413,0,0.000885,0,0
0:6:24.252,1649.08,93.3205,0,0.000885,0,0
0:6:25.940,1656.73,93.7549,0,0.000885,0,0
0:6:27.631,1664.32,94.1824,0,0.000885,0,0
0:6:29.340,1671.09,94.5616,0,0.000885,0,0
0:6:31.039,1678.46,94.9822,0,0.000885,0,0
0:6:32.742,1686.88,95.4579,0,0.000885,0,0
0:6:34.450,1694.12,95.8647,0,0.000885,0,0
0:6:36.135,1699.3,96.1612,0,0.000885,0,0
0:6:37.842,1703.37,96.3887,0,0.000885,0,0
0:6:39.534,1211.53,68.5615,0,0.000885,0,0
0:6:41.030,1192.87,67.4997,0,0.000885,0,0