File: DataFile2021-06-07_040612.csv
Test ID:,Date Tested:,Time:,Test Type:,Diameter Avg. (mm):,Cyl. Corr. Factor:,Height (mm):,Age (days):,Weight (kN):,Break Type:,Ramp Rate (MPa/s):,Load at Break (kN):,Stress at Break (MPa):
12,6/7/2021,04:06,Cylinder,100,1,200,0,3.6,3,0.25,691.63,88.06
Sample Time,Load (kN),Stress (MPa),Long. Strain,Trans. Strain,Chan1 Deflection (mm),Chan2 Deflection (mm)
0:0:23.872,5.04428,0.641212,0,0.000885,0,0
0:0:25.361,8.97206,1.14453,0,0.000885,0,0
0:0:26.851,10.907,1.38585,0,0.000885,0,0
0:0:28.343,13.5493,1.72369,0,0.000885,0,0
0:0:29.843,16.365,2.08222,0,0.000885,0,0
0:0:31.348,19.6478,2.5028,0,0.000885,0,0
0:0:32.842,23.4021,2.97854,0,0.000885,0,0
0:0:34.342,25.8041,3.2888,0,0.000885,0,0
0:0:35.849,29.0914,3.70248,0,0.000885,0,0
0:0:37.341,31.3778,3.99206,0,0.000885,0,0
0:0:38.834,34.3091,4.37128,0,0.000885,0,0
0:0:40.349,37.4763,4.77117,0,0.000885,0,0
0:0:41.844,40.4699,5.15038,0,0.000885,0,0
0:0:43.337,43.2234,5.50202,0,0.000885,0,0
0:0:44.839,46.0391,5.86054,0,0.000885,0,0
0:0:46.344,49.3842,6.28802,0,0.000885,0,0
0:0:47.834,52.4356,6.67413,0,0.000885,0,0
0:0:49.324,54.5441,6.94302,0,0.000885,0,0
0:0:50.841,58.3562,7.43255,0,0.000885,0,0
0:0:52.332,61.0563,7.77039,0,0.000885,0,0
0:0:53.821,63.7519,8.11513,0,0.000885,0,0
0:0:55.336,67.1548,8.5495,0,0.000885,0,0
0:0:56.828,69.7348,8.88045,0,0.000885,0,0
0:0:58.321,73.022,9.29413,0,0.000885,0,0
0:0:59.826,75.602,9.62508,0,0.000885,0,0
0:1:1.333,78.9426,10.0526,0,0.000885,0,0
0:1:2.824,82.4033,10.4938,0,0.000885,0,0
0:1:4.311,84.5162,10.7627,0,0.000885,0,0
0:1:5.831,87.6833,11.1626,0,0.000885,0,0
0:1:7.322,90.6725,11.5418,0,0.000885,0,0
0:1:8.824,93.6662,11.9279,0,0.000885,0,0
0:1:10.340,96.0682,12.2313,0,0.000885,0,0
0:1:11.834,99.529,12.6726,0,0.000885,0,0
0:1:13.325,102.638,13.0656,0,0.000885,0,0
0:1:14.838,105.218,13.3965,0,0.000885,0,0
0:1:16.339,108.505,13.8171,0,0.000885,0,0
0:1:17.831,111.028,14.1343,0,0.000885,0,0
0:1:19.324,114.075,14.5273,0,0.000885,0,0
0:1:20.842,116.89,14.8858,0,0.000885,0,0
0:1:22.334,120.235,15.3064,0,0.000885,0,0
0:1:23.826,122.637,15.6166,0,0.000885,0,0
0:1:25.336,125.689,16.0027,0,0.000885,0,0
0:1:26.836,128.972,16.4233,0,0.000885,0,0
0:1:28.329,132.081,16.8163,0,0.000885,0,0
0:1:29.839,134.661,17.1473,0,0.000885,0,0
0:1:31.341,137.712,17.5334,0,0.000885,0,0
0:1:32.833,140.995,17.9539,0,0.000885,0,0
0:1:34.334,143.753,18.3056,0,0.000885,0,0
0:1:35.844,146.511,18.6572,0,0.000885,0,0
0:1:37.341,149.385,19.0226,0,0.000885,0,0
0:1:38.834,152.489,19.4156,0,0.000885,0,0
0:1:40.348,155.19,19.7604,0,0.000885,0,0
0:1:41.844,157.885,20.1051,0,0.000885,0,0
0:1:43.339,161.466,20.5602,0,0.000885,0,0
0:1:44.846,164.397,20.9325,0,0.000885,0,0
0:1:46.349,167.097,21.2772,0,0.000885,0,0
0:1:47.844,170.029,21.6495,0,0.000885,0,0
0:1:49.339,173.138,22.0425,0,0.000885,0,0
0:1:50.857,176.127,22.4286,0,0.000885,0,0
0:1:52.350,179.294,22.8285,0,0.000885,0,0
0:1:53.844,181.995,23.1733,0,0.000885,0,0
0:1:55.353,184.984,23.5525,0,0.000885,0,0
0:1:56.856,187.857,23.9179,0,0.000885,0,0
0:1:58.345,190.202,24.2144,0,0.000885,0,0
0:1:59.856,193.724,24.6625,0,0.000885,0,0
0:2:1.344,196.536,25.0211,0,0.000885,0,0
0:2:2.827,199.765,25.4348,0,0.000885,0,0
0:2:4.327,202.754,25.814,0,0.000885,0,0
0:2:5.829,205.512,26.1656,0,0.000885,0,0
0:2:7.323,208.208,26.5103,0,0.000885,0,0
0:2:8.804,211.553,26.9378,0,0.000885,0,0
0:2:10.326,214.017,27.2481,0,0.000885,0,0
0:2:11.825,217.416,27.6825,0,0.000885,0,0
0:2:13.304,220.352,28.0548,0,0.000885,0,0
0:2:14.796,222.754,28.365,0,0.000885,0,0
0:2:16.313,226.45,28.8339,0,0.000885,0,0
0:2:17.807,228.914,29.1441,0,0.000885,0,0
0:2:19.298,231.961,29.5371,0,0.000885,0,0
0:2:20.808,234.835,29.9026,0,0.000885,0,0
0:2:22.309,237.709,30.268,0,0.000885,0,0
0:2:23.793,240.818,30.661,0,0.000885,0,0
0:2:25.295,243.398,30.9919,0,0.000885,0,0
0:2:26.783,246.214,31.3505,0,0.000885,0,0
0:2:28.266,249.732,31.7986,0,0.000885,0,0
0:2:29.756,251.845,32.0675,0,0.000885,0,0
0:2:31.253,254.425,32.3916,0,0.000885,0,0
0:2:32.735,257.476,32.7846,0,0.000885,0,0
0:2:34.221,260.234,33.1362,0,0.000885,0,0
0:2:35.725,263.691,33.5775,0,0.000885,0,0
0:2:37.216,266.92,33.9843,0,0.000885,0,0
0:2:38.717,269.206,34.2738,0,0.000885,0,0
0:2:40.218,272.022,34.6324,0,0.000885,0,0
0:2:41.717,275.421,35.0667,0,0.000885,0,0
0:2:43.217,277.476,35.3287,0,0.000885,0,0
0:2:44.730,281.346,35.8252,0,0.000885,0,0
0:2:46.228,286.861,36.5215,0,0.000885,0,0
0:2:47.708,290.905,37.0386,0,0.000885,0,0
0:2:49.209,292.431,37.2317,0,0.000885,0,0
0:2:50.704,293.898,37.4178,0,0.000885,0,0
0:2:52.215,296.714,37.7764,0,0.000885,0,0
0:2:53.714,299.703,38.1625,0,0.000885,0,0
0:2:55.217,301.99,38.4521,0,0.000885,0,0
0:2:56.731,305.45,38.8933,0,0.000885,0,0
0:2:58.220,308.151,39.2381,0,0.000885,0,0
0:2:59.733,311.14,39.6173,0,0.000885,0,0
0:3:1.229,313.72,39.9413,0,0.000885,0,0
0:3:2.729,316.829,40.3412,0,0.000885,0,0
0:3:4.217,319.703,40.7066,0,0.000885,0,0
0:3:5.723,323.341,41.1686,0,0.000885,0,0
0:3:7.224,325.685,41.4651,0,0.000885,0,0
0:3:8.705,328.559,41.8305,0,0.000885,0,0
0:3:10.210,331.846,42.2511,0,0.000885,0,0
0:3:11.704,335.071,42.6648,0,0.000885,0,0
0:3:13.188,337.767,43.0026,0,0.000885,0,0
0:3:14.682,340.992,43.4163,0,0.000885,0,0
0:3:16.179,343.87,43.7817,0,0.000885,0,0
0:3:17.660,346.392,44.1058,0,0.000885,0,0
0:3:19.138,349.265,44.4712,0,0.000885,0,0
0:3:20.646,352.255,44.8504,0,0.000885,0,0
0:3:22.135,355.422,45.2503,0,0.000885,0,0
0:3:23.626,358.295,45.6226,0,0.000885,0,0
0:3:25.132,360.875,45.9467,0,0.000885,0,0
0:3:26.633,364.042,46.3535,0,0.000885,0,0
0:3:28.134,367.036,46.7327,0,0.000885,0,0
0:3:29.626,370.203,47.1326,0,0.000885,0,0
0:3:31.132,372.49,47.429,0,0.000885,0,0
0:3:32.633,375.83,47.8496,0,0.000885,0,0
0:3:34.131,378.882,48.2426,0,0.000885,0,0
0:3:35.638,381.755,48.608,0,0.000885,0,0
0:3:37.139,384.749,48.9873,0,0.000885,0,0
0:3:38.628,387.916,49.394,0,0.000885,0,0
0:3:40.136,390.79,49.7595,0,0.000885,0,0
0:3:41.637,393.249,50.0697,0,0.000885,0,0
0:3:43.138,396.595,50.4972,0,0.000885,0,0
0:3:44.637,399.352,50.8488,0,0.000885,0,0
0:3:46.140,402.168,51.2074,0,0.000885,0,0
0:3:47.633,405.687,51.6555,0,0.000885,0,0
0:3:49.133,408.325,51.9865,0,0.000885,0,0
0:3:50.641,411.376,52.3795,0,0.000885,0,0
0:3:52.140,414.307,52.7518,0,0.000885,0,0
0:3:53.634,416.772,53.0621,0,0.000885,0,0
0:3:55.139,419.819,53.4551,0,0.000885,0,0
0:3:56.641,422.928,53.8481,0,0.000885,0,0
0:3:58.141,426.095,54.2548,0,0.000885,0,0
0:3:59.639,428.853,54.6065,0,0.000885,0,0
0:4:1.139,431.669,54.965,0,0.000885,0,0
0:4:2.639,434.836,55.3649,0,0.000885,0,0
0:4:4.135,437.709,55.7303,0,0.000885,0,0
0:4:5.641,440.756,56.1164,0,0.000885,0,0
0:4:7.121,443.514,56.4681,0,0.000885,0,0
0:4:8.606,446.917,56.9024,0,0.000885,0,0
0:4:10.105,449.146,57.1851,0,0.000885,0,0
0:4:11.593,452.429,57.6057,0,0.000885,0,0
0:4:13.074,455.538,57.9987,0,0.000885,0,0
0:4:14.567,458.176,58.3365,0,0.000885,0,0
0:4:16.064,461.054,58.702,0,0.000885,0,0
0:4:17.543,464.159,59.1019,0,0.000885,0,0
0:4:19.043,467.032,59.4673,0,0.000885,0,0
0:4:20.543,469.732,59.8051,0,0.000885,0,0
0:4:22.036,473.135,60.2395,0,0.000885,0,0
0:4:23.524,475.773,60.5773,0,0.000885,0,0
0:4:25.026,478.646,60.9428,0,0.000885,0,0
0:4:26.545,481.929,61.3633,0,0.000885,0,0
0:4:28.044,484.571,61.6943,0,0.000885,0,0
0:4:29.547,487.151,62.0252,0,0.000885,0,0
0:4:31.044,490.67,62.4734,0,0.000885,0,0
0:4:32.545,493.428,62.825,0,0.000885,0,0
0:4:34.037,496.537,63.218,0,0.000885,0,0
0:4:35.540,499.642,63.6179,0,0.000885,0,0
0:4:37.040,502.516,63.9833,0,0.000885,0,0
0:4:38.541,505.1,64.3143,0,0.000885,0,0
0:4:40.048,508.325,64.7211,0,0.000885,0,0
0:4:41.540,510.433,64.99,0,0.000885,0,0
0:4:43.039,514.366,65.4933,0,0.000885,0,0
0:4:44.548,517.297,65.8656,0,0.000885,0,0
0:4:46.038,519.704,66.169,0,0.000885,0,0
0:4:47.539,522.635,66.5413,0,0.000885,0,0
0:4:49.042,525.918,66.9619,0,0.000885,0,0
0:4:50.548,528.911,67.3411,0,0.000885,0,0
0:4:52.036,531.549,67.6789,0,0.000885,0,0
0:4:53.539,534.543,68.0581,0,0.000885,0,0
0:4:55.046,537.941,68.4925,0,0.000885,0,0
0:4:56.544,540.228,68.7821,0,0.000885,0,0
0:4:58.043,543.279,69.1751,0,0.000885,0,0
0:4:59.550,546.273,69.5543,0,0.000885,0,0
0:5:1.047,549.378,69.9473,0,0.000885,0,0
0:5:2.549,552.193,70.3058,0,0.000885,0,0
0:5:4.032,555.303,70.7057,0,0.000885,0,0
0:5:5.535,557.647,71.0022,0,0.000885,0,0
0:5:7.046,561.17,71.4504,0,0.000885,0,0
0:5:8.547,564.51,71.8778,0,0.000885,0,0
0:5:10.055,567.504,72.2571,0,0.000885,0,0
0:5:11.543,570.142,72.5949,0,0.000885,0,0
0:5:13.041,572.606,72.9052,0,0.000885,0,0
0:5:14.551,575.831,73.3188,0,0.000885,0,0
0:5:16.051,579.172,73.7394,0,0.000885,0,0
0:5:17.544,581.694,74.0635,0,0.000885,0,0
0:5:19.050,584.981,74.4841,0,0.000885,0,0
0:5:20.555,587.561,74.8081,0,0.000885,0,0
0:5:22.051,590.613,75.2011,0,0.000885,0,0
0:5:23.550,593.842,75.6079,0,0.000885,0,0
0:5:25.059,596.951,76.0078,0,0.000885,0,0
0:5:26.556,599.416,76.3181,0,0.000885,0,0
0:5:28.052,602.174,76.6697,0,0.000885,0,0
0:5:29.548,605.229,77.0627,0,0.000885,0,0
0:5:31.051,608.161,77.435,0,0.000885,0,0
0:5:32.538,611.39,77.8418,0,0.000885,0,0
0:5:34.048,614.148,78.1934,0,0.000885,0,0
0:5:35.554,617.204,78.5864,0,0.000885,0,0
0:5:37.044,619.842,78.9243,0,0.000885,0,0
0:5:38.544,622.956,79.3173,0,0.000885,0,0
0:5:40.062,625.891,79.6896,0,0.000885,0,0
0:5:41.559,628.943,80.0826,0,0.000885,0,0
0:5:43.054,631.937,80.4618,0,0.000885,0,0
0:5:44.561,635.166,80.8686,0,0.000885,0,0
0:5:46.065,637.746,81.1996,0,0.000885,0,0
0:5:47.553,640.86,81.5995,0,0.000885,0,0
0:5:49.051,643.911,81.9856,0,0.000885,0,0
0:5:50.555,646.611,82.3303,0,0.000885,0,0
0:5:52.052,649.899,82.7509,0,0.000885,0,0
0:5:53.551,652.247,83.0474,0,0.000885,0,0
0:5:55.061,655.414,83.4472,0,0.000885,0,0
0:5:56.556,658.702,83.8678,0,0.000885,0,0
0:5:58.056,661.873,84.2746,0,0.000885,0,0
0:5:59.561,664.337,84.5849,0,0.000885,0,0
0:6:1.064,667.389,84.9779,0,0.000885,0,0
0:6:2.555,670.089,85.3157,0,0.000885,0,0
0:6:4.050,673.025,85.6949,0,0.000885,0,0
0:6:5.563,675.903,86.0604,0,0.000885,0,0
0:6:7.049,679.012,86.4534,0,0.000885,0,0
0:6:8.549,682.006,86.8326,0,0.000885,0,0
0:6:10.061,684.942,87.2118,0,0.000885,0,0
0:6:11.550,687.935,87.591,0,0.000885,0,0
0:6:13.048,690.457,87.9151,0,0.000885,0,0
0:6:13.990,569.67,72.5328,0,0.000885,0,0