File: DataFile2021-07-28_100321.csv
Test ID:,Date Tested:,Time:,Test Type:,Diameter Avg. (mm):,Cyl. Corr. Factor:,Height (mm):,Age (days):,Weight (kN):,Break Type:,Ramp Rate (MPa/s):,Load at Break (kN):,Stress at Break (MPa):
12,7/28/2021,10:03,Cylinder,100,1,200,0,13.69,3,0.35,1026.4,130.68
Sample Time,Load (kN),Stress (MPa),Long. Strain,Trans. Strain,Chan1 Deflection (mm),Chan2 Deflection (mm)
0:0:3.508,5.7471,0.730844,0,0.000885,0,0
0:0:5.098,8.85641,1.13074,0,0.000885,0,0
0:0:6.690,13.785,1.75816,0,0.000885,0,0
0:0:8.280,17.4192,2.22011,0,0.000885,0,0
0:0:9.900,22.4635,2.86132,0,0.000885,0,0
0:0:11.500,27.3299,3.48185,0,0.000885,0,0
0:0:13.090,32.3163,4.11617,0,0.000885,0,0
0:0:14.696,35.8927,4.57122,0,0.000885,0,0
0:0:16.297,40.1185,5.10902,0,0.000885,0,0
0:0:17.891,44.8069,5.70196,0,0.000885,0,0
0:0:19.502,49.0906,6.25354,0,0.000885,0,0
0:0:21.105,53.6055,6.82581,0,0.000885,0,0
0:0:22.696,57.8313,7.3636,0,0.000885,0,0
0:0:24.299,62.582,7.97034,0,0.000885,0,0
0:0:25.909,66.6255,8.48055,0,0.000885,0,0
0:0:27.502,70.9091,9.02524,0,0.000885,0,0
0:0:29.099,75.8956,9.66645,0,0.000885,0,0
0:0:30.713,79.3563,10.1008,0,0.000885,0,0
0:0:32.302,84.2805,10.7282,0,0.000885,0,0
0:0:33.896,88.7954,11.3074,0,0.000885,0,0
0:0:35.515,93.4304,11.8935,0,0.000885,0,0
0:0:37.109,97.0068,12.3485,0,0.000885,0,0
0:0:38.700,101.758,12.9552,0,0.000885,0,0
0:0:40.319,106.508,13.562,0,0.000885,0,0
0:0:41.912,110.965,14.1274,0,0.000885,0,0
0:0:43.505,115.191,14.6651,0,0.000885,0,0
0:0:45.120,119.47,15.2098,0,0.000885,0,0
0:0:46.714,124.048,15.7959,0,0.000885,0,0
0:0:48.305,128.211,16.3268,0,0.000885,0,0
0:0:49.917,132.61,16.8853,0,0.000885,0,0
0:0:51.517,136.774,17.4162,0,0.000885,0,0
0:0:53.112,141.818,18.0574,0,0.000885,0,0
0:0:54.714,146.511,18.6572,0,0.000885,0,0
0:0:56.318,150.261,19.133,0,0.000885,0,0
0:0:57.911,154.896,19.719,0,0.000885,0,0
0:0:59.518,159.117,20.2568,0,0.000885,0,0
0:1:1.118,163.517,20.8222,0,0.000885,0,0
0:1:2.710,167.916,21.3806,0,0.000885,0,0
0:1:4.312,172.845,22.0081,0,0.000885,0,0
0:1:5.923,176.599,22.4838,0,0.000885,0,0
0:1:7.519,181.345,23.0905,0,0.000885,0,0
0:1:9.111,185.513,23.6214,0,0.000885,0,0
0:1:10.726,190.086,24.2006,0,0.000885,0,0
0:1:12.314,194.485,24.766,0,0.000885,0,0
0:1:13.899,198.239,25.2417,0,0.000885,0,0
0:1:15.499,202.697,25.8071,0,0.000885,0,0
0:1:17.092,207.563,26.4276,0,0.000885,0,0
0:1:18.692,211.726,26.9585,0,0.000885,0,0
0:1:20.300,216.597,27.579,0,0.000885,0,0
0:1:21.891,220.583,28.0823,0,0.000885,0,0
0:1:23.481,224.982,28.6477,0,0.000885,0,0
0:1:25.091,229.439,29.2131,0,0.000885,0,0
0:1:26.689,233.839,29.7716,0,0.000885,0,0
0:1:28.276,238.416,30.3576,0,0.000885,0,0
0:1:29.878,242.401,30.8609,0,0.000885,0,0
0:1:31.471,246.507,31.3849,0,0.000885,0,0
0:1:33.053,251.084,31.971,0,0.000885,0,0
0:1:34.653,255.951,32.5915,0,0.000885,0,0
0:1:36.243,260.644,33.1845,0,0.000885,0,0
0:1:37.822,264.336,33.6533,0,0.000885,0,0
0:1:39.416,268.326,34.1635,0,0.000885,0,0
0:1:41.011,273.076,34.7703,0,0.000885,0,0
0:1:42.592,277.591,35.3425,0,0.000885,0,0
0:1:44.187,282.226,35.9355,0,0.000885,0,0
0:1:45.787,286.038,36.4181,0,0.000885,0,0
0:1:47.388,290.673,37.0111,0,0.000885,0,0
0:1:48.999,295.246,37.5902,0,0.000885,0,0
0:1:50.597,300.233,38.2245,0,0.000885,0,0
0:1:52.187,303.751,38.6727,0,0.000885,0,0
0:1:53.791,307.973,39.2105,0,0.000885,0,0
0:1:55.390,312.723,39.8172,0,0.000885,0,0
0:1:56.990,317.123,40.3757,0,0.000885,0,0
0:1:58.592,321.406,40.9204,0,0.000885,0,0
0:2:0.198,325.921,41.4995,0,0.000885,0,0
0:2:1.788,330.2,42.0442,0,0.000885,0,0
0:2:3.396,334.542,42.5958,0,0.000885,0,0
0:2:5.001,338.941,43.1543,0,0.000885,0,0
0:2:6.594,343.398,43.7197,0,0.000885,0,0
0:2:8.195,348.265,44.3402,0,0.000885,0,0
0:2:9.795,353.015,44.9469,0,0.000885,0,0
0:2:11.396,356.89,45.4433,0,0.000885,0,0
0:2:12.994,360.875,45.9467,0,0.000885,0,0
0:2:14.598,364.981,46.4707,0,0.000885,0,0
0:2:16.187,369.674,47.0705,0,0.000885,0,0
0:2:17.789,375.012,47.7462,0,0.000885,0,0
0:2:19.398,378.472,48.1875,0,0.000885,0,0
0:2:20.995,382.814,48.739,0,0.000885,0,0
0:2:22.593,387.151,49.2906,0,0.000885,0,0
0:2:24.196,391.728,49.8767,0,0.000885,0,0
0:2:25.791,396.127,50.4351,0,0.000885,0,0
0:2:27.398,401.052,51.0626,0,0.000885,0,0
0:2:28.997,405.335,51.6073,0,0.000885,0,0
0:2:30.595,409.027,52.0761,0,0.000885,0,0
0:2:32.196,413.662,52.6691,0,0.000885,0,0
0:2:33.796,418.413,53.2758,0,0.000885,0,0
0:2:35.402,422.461,53.786,0,0.000885,0,0
0:2:36.991,427.269,54.3996,0,0.000885,0,0
0:2:38.599,431.082,54.8892,0,0.000885,0,0
0:2:40.201,435.597,55.4614,0,0.000885,0,0
0:2:41.794,440.174,56.0475,0,0.000885,0,0
0:2:43.394,445.392,56.7094,0,0.000885,0,0
0:2:45.001,449.146,57.1851,0,0.000885,0,0
0:2:46.590,452.78,57.6471,0,0.000885,0,0
0:2:48.194,457.766,58.2814,0,0.000885,0,0
0:2:49.804,462.517,58.8881,0,0.000885,0,0
0:2:51.402,466.094,59.3432,0,0.000885,0,0
0:2:52.999,471.374,60.0189,0,0.000885,0,0
0:2:54.605,475.595,60.5567,0,0.000885,0,0
0:2:56.194,479.701,61.0807,0,0.000885,0,0
0:2:57.795,484.451,61.6805,0,0.000885,0,0
0:2:59.404,488.384,62.1838,0,0.000885,0,0
0:3:1.002,493.192,62.7974,0,0.000885,0,0
0:3:2.601,497.298,63.3146,0,0.000885,0,0
0:3:4.206,501.933,63.9075,0,0.000885,0,0
0:3:5.801,505.976,64.4246,0,0.000885,0,0
0:3:7.389,510.26,64.9693,0,0.000885,0,0
0:3:9.003,515.011,65.576,0,0.000885,0,0
0:3:10.606,519.352,66.1276,0,0.000885,0,0
0:3:12.204,524.218,66.7481,0,0.000885,0,0
0:3:13.797,528.088,67.2377,0,0.000885,0,0
0:3:15.406,532.372,67.7824,0,0.000885,0,0
0:3:16.998,536.945,68.3684,0,0.000885,0,0
0:3:18.599,541.344,68.9269,0,0.000885,0,0
0:3:20.206,545.979,69.5129,0,0.000885,0,0
0:3:21.803,549.907,70.0163,0,0.000885,0,0
0:3:23.403,554.836,70.6437,0,0.000885,0,0
0:3:25.007,559.115,71.1884,0,0.000885,0,0
0:3:26.599,563.572,71.7537,0,0.000885,0,0
0:3:28.197,567.678,72.2777,0,0.000885,0,0
0:3:29.807,572.428,72.8845,0,0.000885,0,0
0:3:31.403,576.65,73.4223,0,0.000885,0,0
0:3:33.006,581.578,74.0497,0,0.000885,0,0
0:3:34.604,585.506,74.5461,0,0.000885,0,0
0:3:36.203,588.967,74.9874,0,0.000885,0,0
0:3:37.800,594.309,75.67,0,0.000885,0,0
0:3:39.414,598.419,76.194,0,0.000885,0,0
0:3:41.009,602.823,76.7524,0,0.000885,0,0
0:3:42.608,608.103,77.4281,0,0.000885,0,0
0:3:44.206,611.217,77.8211,0,0.000885,0,0
0:3:45.811,616.088,78.4417,0,0.000885,0,0
0:3:47.408,620.843,79.0484,0,0.000885,0,0
0:3:49.003,625.184,79.6,0,0.000885,0,0
0:3:50.617,629.352,80.1309,0,0.000885,0,0
0:3:52.204,633.347,80.6411,0,0.000885,0,0
0:3:53.808,637.924,81.2202,0,0.000885,0,0
0:3:55.411,642.443,81.7994,0,0.000885,0,0
0:3:57.009,646.669,82.3372,0,0.000885,0,0
0:3:58.609,651.718,82.9784,0,0.000885,0,0
0:4:0.221,656.064,83.53,0,0.000885,0,0
0:4:1.810,659.996,84.0333,0,0.000885,0,0
0:4:3.407,664.458,84.5987,0,0.000885,0,0
0:4:5.013,668.977,85.1778,0,0.000885,0,0
0:4:6.603,673.963,85.8121,0,0.000885,0,0
0:4:8.210,677.722,86.2879,0,0.000885,0,0
0:4:9.817,682.357,86.8808,0,0.000885,0,0
0:4:11.413,686.881,87.4531,0,0.000885,0,0
0:4:13.010,690.635,87.9357,0,0.000885,0,0
0:4:14.614,695.742,88.5838,0,0.000885,0,0
0:4:16.210,700.026,89.1285,0,0.000885,0,0
0:4:17.795,704.314,89.6732,0,0.000885,0,0
0:4:19.400,708.126,90.1627,0,0.000885,0,0
0:4:21.008,713.41,90.8315,0,0.000885,0,0
0:4:22.606,716.933,91.2797,0,0.000885,0,0
0:4:24.213,721.395,91.852,0,0.000885,0,0
0:4:25.813,726.444,92.4932,0,0.000885,0,0
0:4:27.410,730.549,93.0172,0,0.000885,0,0
0:4:29.016,734.717,93.5481,0,0.000885,0,0
0:4:30.623,739.121,94.1065,0,0.000885,0,0
0:4:32.211,743.467,94.6581,0,0.000885,0,0
0:4:33.809,748.218,95.2649,0,0.000885,0,0
0:4:35.423,752.563,95.8164,0,0.000885,0,0
0:4:37.009,756.731,96.3473,0,0.000885,0,0
0:4:38.602,760.957,96.8851,0,0.000885,0,0
0:4:40.217,765.241,97.4367,0,0.000885,0,0
0:4:41.807,769.645,97.9952,0,0.000885,0,0
0:4:43.415,774.458,98.6088,0,0.000885,0,0
0:4:45.021,778.804,99.1604,0,0.000885,0,0
0:4:46.616,783.439,99.7533,0,0.000885,0,0
0:4:48.200,787.784,100.305,0,0.000885,0,0
0:4:49.823,791.89,100.829,0,0.000885,0,0
0:4:51.411,796.53,101.415,0,0.000885,0,0
0:4:52.996,801.227,102.015,0,0.000885,0,0
0:4:54.616,805.275,102.532,0,0.000885,0,0
0:4:56.212,809.736,103.097,0,0.000885,0,0
0:4:57.818,814.434,103.697,0,0.000885,0,0
0:4:59.418,818.895,104.263,0,0.000885,0,0
0:5:1.016,822.765,104.759,0,0.000885,0,0
0:5:2.612,827.405,105.345,0,0.000885,0,0
0:5:4.221,832.04,105.938,0,0.000885,0,0
0:5:5.824,836.27,106.476,0,0.000885,0,0
0:5:7.413,840.26,106.986,0,0.000885,0,0
0:5:9.011,844.602,107.538,0,0.000885,0,0
0:5:10.622,849.708,108.186,0,0.000885,0,0
0:5:12.209,853.818,108.71,0,0.000885,0,0
0:5:13.819,858.631,109.323,0,0.000885,0,0
0:5:15.424,862.919,109.868,0,0.000885,0,0
0:5:17.012,866.38,110.309,0,0.000885,0,0
0:5:18.609,871.077,110.909,0,0.000885,0,0
0:5:20.220,875.245,111.44,0,0.000885,0,0
0:5:21.819,880.232,112.074,0,0.000885,0,0
0:5:23.416,884.756,112.653,0,0.000885,0,0
0:5:25.022,889.155,113.212,0,0.000885,0,0
0:5:26.616,893.559,113.77,0,0.000885,0,0
0:5:28.211,897.375,114.26,0,0.000885,0,0
0:5:29.820,902.304,114.887,0,0.000885,0,0
0:5:31.405,906.592,115.432,0,0.000885,0,0
0:5:33.014,910.524,115.928,0,0.000885,0,0
0:5:34.619,915.689,116.59,0,0.000885,0,0
0:5:36.213,919.327,117.052,0,0.000885,0,0
0:5:37.810,923.495,117.583,0,0.000885,0,0
0:5:39.419,928.544,118.224,0,0.000885,0,0
0:5:41.016,933.299,118.831,0,0.000885,0,0
0:5:42.613,936.938,119.293,0,0.000885,0,0
0:5:44.215,941.573,119.886,0,0.000885,0,0
0:5:45.820,945.977,120.445,0,0.000885,0,0
0:5:47.416,950.087,120.969,0,0.000885,0,0
0:5:49.012,954.428,121.52,0,0.000885,0,0
0:5:50.617,959.771,122.203,0,0.000885,0,0
0:5:52.214,963.529,122.678,0,0.000885,0,0
0:5:53.821,967.226,123.154,0,0.000885,0,0
0:5:55.432,971.629,123.713,0,0.000885,0,0
0:5:57.017,976.91,124.381,0,0.000885,0,0
0:5:58.613,981.843,125.009,0,0.000885,0,0
0:6:0.225,986.068,125.554,0,0.000885,0,0
0:6:1.814,990.414,126.105,0,0.000885,0,0
0:6:3.410,995.459,126.746,0,0.000885,0,0
0:6:5.026,999.275,127.229,0,0.000885,0,0
0:6:6.621,1003.62,127.787,0,0.000885,0,0
0:6:8.218,1008.08,128.353,0,0.000885,0,0
0:6:9.833,1011.84,128.829,0,0.000885,0,0
0:6:11.424,1016.65,129.442,0,0.000885,0,0
0:6:13.019,1020.82,129.973,0,0.000885,0,0
0:6:14.624,1024.93,130.497,0,0.000885,0,0
0:6:15.582,1026.34,130.676,0,0.000885,0,0