File: DataFile2021-07-17_060656.csv
Test ID:,Date Tested:,Time:,Test Type:,Diameter Avg. (mm):,Cyl. Corr. Factor:,Height (mm):,Age (days):,Weight (kN):,Break Type:,Ramp Rate (MPa/s):,Load at Break (kN):,Stress at Break (MPa):
12,7/17/2021,06:06,Cylinder,100,1,200,0,3.6,3,0.25,463.81,59.05
Sample Time,Load (kN),Stress (MPa),Long. Strain,Trans. Strain,Chan1 Deflection (mm),Chan2 Deflection (mm)
0:0:7.883,5.04428,0.641212,0,0.000885,0,0
0:0:8.974,8.03349,1.02042,0,0.000885,0,0
0:0:10.067,9.5014,1.20658,0,0.000885,0,0
0:0:11.161,11.3786,1.4479,0,0.000885,0,0
0:0:12.255,13.3714,1.70301,0,0.000885,0,0
0:0:13.358,15.9513,2.03395,0,0.000885,0,0
0:0:14.469,18.3,2.33043,0,0.000885,0,0
0:0:15.566,20.1771,2.57174,0,0.000885,0,0
0:0:16.662,22.3479,2.84753,0,0.000885,0,0
0:0:17.759,25.4527,3.24054,0,0.000885,0,0
0:0:18.862,27.45,3.49564,0,0.000885,0,0
0:0:19.971,29.385,3.74385,0,0.000885,0,0
0:0:21.066,31.3199,3.98517,0,0.000885,0,0
0:0:22.157,33.077,4.2127,0,0.000885,0,0
0:0:23.257,34.8385,4.43333,0,0.000885,0,0
0:0:24.365,37.4763,4.77117,0,0.000885,0,0
0:0:25.461,39.9406,5.08833,0,0.000885,0,0
0:0:26.557,42.3471,5.3917,0,0.000885,0,0
0:0:27.652,44.0463,5.60544,0,0.000885,0,0
0:0:28.755,45.8656,5.83986,0,0.000885,0,0
0:0:29.862,48.152,6.12944,0,0.000885,0,0
0:0:30.954,50.087,6.37765,0,0.000885,0,0
0:0:32.044,53.1385,6.76376,0,0.000885,0,0
0:0:33.153,55.3092,7.03955,0,0.000885,0,0
0:0:34.263,56.7727,7.22571,0,0.000885,0,0
0:0:35.366,59.4727,7.57044,0,0.000885,0,0
0:0:36.458,61.5812,7.83934,0,0.000885,0,0
0:0:37.548,63.2848,8.05997,0,0.000885,0,0
0:0:38.658,65.6291,8.35645,0,0.000885,0,0
0:0:39.760,68.209,8.68739,0,0.000885,0,0
0:0:40.855,70.4376,8.97008,0,0.000885,0,0
0:0:41.959,72.1991,9.19071,0,0.000885,0,0
0:0:43.054,74.312,9.45961,0,0.000885,0,0
0:0:44.166,76.3626,9.72161,0,0.000885,0,0
0:0:45.268,78.5912,10.0043,0,0.000885,0,0
0:0:46.360,80.4105,10.2387,0,0.000885,0,0
0:0:47.454,83.1061,10.5835,0,0.000885,0,0
0:0:48.556,84.9254,10.811,0,0.000885,0,0
0:0:49.666,87.5054,11.1419,0,0.000885,0,0
0:0:50.765,89.6183,11.4108,0,0.000885,0,0
0:0:51.858,91.5533,11.659,0,0.000885,0,0
0:0:52.961,93.4304,11.8935,0,0.000885,0,0
0:0:54.069,96.4819,12.2865,0,0.000885,0,0
0:0:55.170,98.3546,12.5209,0,0.000885,0,0
0:0:56.266,100.703,12.8242,0,0.000885,0,0
0:0:57.362,102.403,13.038,0,0.000885,0,0
0:0:58.466,104.689,13.3276,0,0.000885,0,0
0:0:59.576,106.744,13.5896,0,0.000885,0,0
0:1:0.671,108.679,13.8378,0,0.000885,0,0
0:1:1.762,111.201,14.1618,0,0.000885,0,0
0:1:2.857,113.43,14.4445,0,0.000885,0,0
0:1:3.967,115.422,14.6996,0,0.000885,0,0
0:1:5.069,117.535,14.9685,0,0.000885,0,0
0:1:6.166,119.355,15.196,0,0.000885,0,0
0:1:7.261,121.525,15.4718,0,0.000885,0,0
0:1:8.358,123.985,15.789,0,0.000885,0,0
0:1:9.469,126.45,16.0993,0,0.000885,0,0
0:1:10.565,128.091,16.3061,0,0.000885,0,0
0:1:11.662,130.555,16.6233,0,0.000885,0,0
0:1:12.766,132.962,16.9266,0,0.000885,0,0
0:1:13.870,135.012,17.1886,0,0.000885,0,0
0:1:14.978,137.01,17.4437,0,0.000885,0,0
0:1:16.071,138.709,17.6575,0,0.000885,0,0
0:1:17.166,141.231,17.9815,0,0.000885,0,0
0:1:18.260,143.517,18.2711,0,0.000885,0,0
0:1:19.373,145.452,18.5193,0,0.000885,0,0
0:1:20.478,147.33,18.7606,0,0.000885,0,0
0:1:21.571,149.852,19.0778,0,0.000885,0,0
0:1:22.665,152.489,19.4156,0,0.000885,0,0
0:1:23.771,154.193,19.6294,0,0.000885,0,0
0:1:24.877,156.364,19.9121,0,0.000885,0,0
0:1:25.971,158.415,20.1672,0,0.000885,0,0
0:1:27.067,160.821,20.4774,0,0.000885,0,0
0:1:28.162,163.574,20.8291,0,0.000885,0,0
0:1:29.274,165.572,21.0842,0,0.000885,0,0
0:1:30.372,167.097,21.2772,0,0.000885,0,0
0:1:31.466,169.499,21.5806,0,0.000885,0,0
0:1:32.563,171.67,21.8564,0,0.000885,0,0
0:1:33.666,173.49,22.0908,0,0.000885,0,0
0:1:34.777,175.718,22.3735,0,0.000885,0,0
0:1:35.871,178.649,22.7458,0,0.000885,0,0
0:1:36.964,180.411,22.9733,0,0.000885,0,0
0:1:38.053,182.813,23.2767,0,0.000885,0,0
0:1:39.166,184.69,23.518,0,0.000885,0,0
0:1:40.268,186.389,23.7318,0,0.000885,0,0
0:1:41.362,188.329,23.98,0,0.000885,0,0
0:1:42.454,190.437,24.2489,0,0.000885,0,0
0:1:43.573,193.489,24.635,0,0.000885,0,0
0:1:44.670,195.188,24.8556,0,0.000885,0,0
0:1:45.757,197.71,25.1728,0,0.000885,0,0
0:1:46.863,200.059,25.4692,0,0.000885,0,0
0:1:47.948,202.287,25.7588,0,0.000885,0,0
0:1:49.050,204.164,25.9932,0,0.000885,0,0
0:1:50.144,206.509,26.2966,0,0.000885,0,0
0:1:51.262,207.447,26.4138,0,0.000885,0,0
0:1:52.360,210.788,26.8413,0,0.000885,0,0
0:1:53.466,212.607,27.0688,0,0.000885,0,0
0:1:54.571,214.662,27.3308,0,0.000885,0,0
0:1:55.660,216.891,27.6135,0,0.000885,0,0
0:1:56.756,219.062,27.8893,0,0.000885,0,0
0:1:57.853,221.757,28.234,0,0.000885,0,0
0:1:58.962,222.811,28.3719,0,0.000885,0,0
0:2:0.061,225.511,28.7098,0,0.000885,0,0
0:2:1.154,227.798,29.0062,0,0.000885,0,0
0:2:2.262,230.378,29.3303,0,0.000885,0,0
0:2:3.366,232.019,29.544,0,0.000885,0,0
0:2:4.469,234.426,29.8474,0,0.000885,0,0
0:2:5.555,236.419,30.1025,0,0.000885,0,0
0:2:6.652,238.941,30.4197,0,0.000885,0,0
0:2:7.763,241.111,30.7024,0,0.000885,0,0
0:2:8.870,242.873,30.923,0,0.000885,0,0
0:2:9.966,244.456,31.1229,0,0.000885,0,0
0:2:11.060,246.916,31.4401,0,0.000885,0,0
0:2:12.154,249.029,31.709,0,0.000885,0,0
0:2:13.250,250.906,31.9434,0,0.000885,0,0
0:2:14.356,253.193,32.2399,0,0.000885,0,0
0:2:15.463,255.951,32.5915,0,0.000885,0,0
0:2:16.556,257.943,32.8397,0,0.000885,0,0
0:2:17.662,260.35,33.15,0,0.000885,0,0
0:2:18.764,262.107,33.3706,0,0.000885,0,0
0:2:19.856,264.807,33.7154,0,0.000885,0,0
0:2:20.952,266.684,33.9567,0,0.000885,0,0
0:2:22.051,268.383,34.1704,0,0.000885,0,0
0:2:23.157,271.319,34.5427,0,0.000885,0,0
0:2:24.264,273.37,34.8047,0,0.000885,0,0
0:2:25.351,274.953,35.0116,0,0.000885,0,0
0:2:26.455,277.182,35.2943,0,0.000885,0,0
0:2:27.563,279.526,35.5907,0,0.000885,0,0
0:2:28.669,281.991,35.901,0,0.000885,0,0
0:2:29.771,283.81,36.1354,0,0.000885,0,0
0:2:30.869,285.861,36.3974,0,0.000885,0,0
0:2:31.956,287.973,36.6663,0,0.000885,0,0
0:2:33.063,290.438,36.9766,0,0.000885,0,0
0:2:34.174,292.608,37.2593,0,0.000885,0,0
0:2:35.269,295.073,37.5695,0,0.000885,0,0
0:2:36.367,296.594,37.7626,0,0.000885,0,0
0:2:37.467,298.765,38.0384,0,0.000885,0,0
0:2:38.574,300.584,38.2728,0,0.000885,0,0
0:2:39.675,303.106,38.59,0,0.000885,0,0
0:2:40.770,304.863,38.8175,0,0.000885,0,0
0:2:41.865,305.393,38.8864,0,0.000885,0,0
0:2:42.970,309.325,39.3829,0,0.000885,0,0
0:2:44.076,312.372,39.7759,0,0.000885,0,0
0:2:45.172,314.721,40.0723,0,0.000885,0,0
0:2:46.268,316.593,40.3068,0,0.000885,0,0
0:2:47.352,319.115,40.6308,0,0.000885,0,0
0:2:48.446,321.113,40.8859,0,0.000885,0,0
0:2:49.550,322.99,41.1272,0,0.000885,0,0
0:2:50.659,324.573,41.3272,0,0.000885,0,0
0:2:51.756,327.096,41.6443,0,0.000885,0,0
0:2:52.842,328.737,41.8581,0,0.000885,0,0
0:2:53.953,330.965,42.1408,0,0.000885,0,0
0:2:55.049,333.368,42.4441,0,0.000885,0,0
0:2:56.157,335.716,42.7475,0,0.000885,0,0
0:2:57.262,337.887,43.0233,0,0.000885,0,0
0:2:58.360,339.88,43.2715,0,0.000885,0,0
0:2:59.469,342.344,43.5887,0,0.000885,0,0
0:3:0.560,344.395,43.8507,0,0.000885,0,0
0:3:1.656,346.036,44.0575,0,0.000885,0,0
0:3:2.751,348.443,44.3678,0,0.000885,0,0
0:3:3.856,350.613,44.6436,0,0.000885,0,0
0:3:4.952,353.015,44.9469,0,0.000885,0,0
0:3:6.060,355.013,45.202,0,0.000885,0,0
0:3:7.167,357.183,45.4778,0,0.000885,0,0
0:3:8.268,359.528,45.7743,0,0.000885,0,0
0:3:9.372,361.872,46.0777,0,0.000885,0,0
0:3:10.469,364.22,46.3741,0,0.000885,0,0
0:3:11.567,365.746,46.5672,0,0.000885,0,0
0:3:12.662,367.33,46.7671,0,0.000885,0,0
0:3:13.772,369.558,47.0567,0,0.000885,0,0
0:3:14.870,372.018,47.367,0,0.000885,0,0
0:3:15.963,374.834,47.7255,0,0.000885,0,0
0:3:17.049,377.005,48.0013,0,0.000885,0,0
0:3:18.144,378.646,48.2081,0,0.000885,0,0
0:3:19.257,380.701,48.4701,0,0.000885,0,0
0:3:20.353,382.93,48.7528,0,0.000885,0,0
0:3:21.450,384.98,49.0148,0,0.000885,0,0
0:3:22.557,387.502,49.3389,0,0.000885,0,0
0:3:23.658,389.38,49.5802,0,0.000885,0,0
0:3:24.753,392.315,49.9525,0,0.000885,0,0
0:3:25.857,393.837,50.1456,0,0.000885,0,0
0:3:26.976,396.243,50.4489,0,0.000885,0,0
0:3:28.071,397.769,50.642,0,0.000885,0,0
0:3:29.175,399.997,50.9316,0,0.000885,0,0
0:3:30.271,402.751,51.2832,0,0.000885,0,0
0:3:31.364,404.69,51.5245,0,0.000885,0,0
0:3:32.458,407.035,51.8279,0,0.000885,0,0
0:3:33.560,408.734,52.0416,0,0.000885,0,0
0:3:34.664,411.256,52.3657,0,0.000885,0,0
0:3:35.762,413.191,52.607,0,0.000885,0,0
0:3:36.870,414.774,52.8138,0,0.000885,0,0
0:3:37.965,417.648,53.1793,0,0.000885,0,0
0:3:39.061,419.232,53.3792,0,0.000885,0,0
0:3:40.166,421.344,53.6481,0,0.000885,0,0
0:3:41.259,423.337,53.9032,0,0.000885,0,0
0:3:42.358,425.686,54.1997,0,0.000885,0,0
0:3:43.462,428.795,54.5927,0,0.000885,0,0
0:3:44.563,430.201,54.772,0,0.000885,0,0
0:3:45.670,431.962,54.9995,0,0.000885,0,0
0:3:46.774,434.307,55.296,0,0.000885,0,0
0:3:47.867,437.007,55.6407,0,0.000885,0,0
0:3:48.974,438.999,55.8958,0,0.000885,0,0
0:3:50.066,441.344,56.1923,0,0.000885,0,0
0:3:51.173,443.047,56.4129,0,0.000885,0,0
0:3:52.268,445.743,56.7507,0,0.000885,0,0
0:3:53.376,446.624,56.868,0,0.000885,0,0
0:3:54.481,450.32,57.3368,0,0.000885,0,0
0:3:55.571,451.841,57.5299,0,0.000885,0,0
0:3:56.665,453.545,57.7505,0,0.000885,0,0
0:3:57.773,455.716,58.0263,0,0.000885,0,0
0:3:58.878,458.296,58.3503,0,0.000885,0,0
0:3:59.982,460.053,58.5779,0,0.000885,0,0
0:4:1.079,462.575,58.895,0,0.000885,0,0
0:4:2.173,463.985,59.0743,0,0.000885,0,0
0:4:3.274,458.002,58.3159,0,0.000885,0,0
0:4:4.373,460.231,58.5985,0,0.000885,0,0
0:4:5.481,458.469,58.371,0,0.000885,0,0
0:4:6.564,457.006,58.1849,0,0.000885,0,0
0:4:7.678,456.477,58.1228,0,0.000885,0,0
0:4:8.775,454.542,57.8746,0,0.000885,0,0
0:4:9.876,430.437,54.8064,0,0.000885,0,0
0:4:10.598,383.459,48.8218,0,0.000885,0,0