File: DataFile2021-06-30_055816.csv
Test ID:,Date Tested:,Time:,Test Type:,Diameter Avg. (mm):,Cyl. Corr. Factor:,Height (mm):,Age (days):,Weight (kN):,Break Type:,Ramp Rate (MPa/s):,Load at Break (kN):,Stress at Break (MPa):
12,6/30/2021,05:58,Cylinder,150,1,300,0,3.6,3,0.25,1781.98,100.84
Sample Time,Load (kN),Stress (MPa),Long. Strain,Trans. Strain,Chan1 Deflection (mm),Chan2 Deflection (mm)
0:0:16.995,5.21776,0.296475,0,0.000885,0,0
0:0:18.824,11.9657,0.675686,0,0.000885,0,0
0:0:20.623,20.5864,1.16521,0,0.000885,0,0
0:0:22.416,29.7942,1.68922,0,0.000885,0,0
0:0:24.232,37.5341,2.12359,0,0.000885,0,0
0:0:26.021,44.8692,2.53727,0,0.000885,0,0
0:0:27.826,53.4899,3.0268,0,0.000885,0,0
0:0:29.628,61.2876,3.46806,0,0.000885,0,0
0:0:31.423,68.7962,3.89554,0,0.000885,0,0
0:0:33.240,77.1855,4.36438,0,0.000885,0,0
0:0:35.038,83.6355,4.7298,0,0.000885,0,0
0:0:36.831,93.6662,5.30207,0,0.000885,0,0
0:0:38.643,100.525,5.68817,0,0.000885,0,0
0:0:40.437,108.27,6.12944,0,0.000885,0,0
0:0:42.227,116.833,6.61207,0,0.000885,0,0
0:0:44.046,125.862,7.12228,0,0.000885,0,0
0:0:45.836,133.429,7.54976,0,0.000885,0,0
0:0:47.630,140.35,7.94276,0,0.000885,0,0
0:0:49.444,148.384,8.39781,0,0.000885,0,0
0:0:51.238,156.07,8.83218,0,0.000885,0,0
0:0:53.042,164.104,9.28724,0,0.000885,0,0
0:0:54.844,172.315,9.74919,0,0.000885,0,0
0:0:56.632,180.349,10.2042,0,0.000885,0,0
0:0:58.444,188.035,10.6386,0,0.000885,0,0
0:1:0.231,196.598,11.1281,0,0.000885,0,0
0:1:2.024,204.044,11.5487,0,0.000885,0,0
0:1:3.820,211.726,11.9831,0,0.000885,0,0
0:1:5.625,220.409,12.4726,0,0.000885,0,0
0:1:7.415,228.327,12.9208,0,0.000885,0,0
0:1:9.212,236.361,13.3758,0,0.000885,0,0
0:1:11.016,243.927,13.8033,0,0.000885,0,0
0:1:12.807,252.196,14.2721,0,0.000885,0,0
0:1:14.629,259.999,14.7134,0,0.000885,0,0
0:1:16.418,267.503,15.1409,0,0.000885,0,0
0:1:18.221,275.776,15.6028,0,0.000885,0,0
0:1:20.020,284.219,16.0855,0,0.000885,0,0
0:1:21.813,291.434,16.4923,0,0.000885,0,0
0:1:23.622,299.703,16.9611,0,0.000885,0,0
0:1:25.427,308.151,17.4368,0,0.000885,0,0
0:1:27.229,314.778,17.8161,0,0.000885,0,0
0:1:29.027,323.341,18.2987,0,0.000885,0,0
0:1:30.828,331.784,18.7744,0,0.000885,0,0
0:1:32.629,338.883,19.1743,0,0.000885,0,0
0:1:34.427,347.326,19.657,0,0.000885,0,0
0:1:36.220,355.244,20.1051,0,0.000885,0,0
0:1:38.032,363.162,20.5533,0,0.000885,0,0
0:1:39.821,371.142,21.0014,0,0.000885,0,0
0:1:41.622,379.411,21.4703,0,0.000885,0,0
0:1:43.433,387.093,21.9046,0,0.000885,0,0
0:1:45.223,394.424,22.3183,0,0.000885,0,0
0:1:47.028,403.458,22.8285,0,0.000885,0,0
0:1:48.833,410.553,23.2353,0,0.000885,0,0
0:1:50.630,418.649,23.6904,0,0.000885,0,0
0:1:52.419,426.682,24.1454,0,0.000885,0,0
0:1:54.231,434.778,24.6005,0,0.000885,0,0
0:1:56.033,442.576,25.0418,0,0.000885,0,0
0:1:57.825,450.551,25.4968,0,0.000885,0,0
0:1:59.624,458.763,25.9588,0,0.000885,0,0
0:2:1.421,466.859,26.4207,0,0.000885,0,0
0:2:3.222,474.367,26.8413,0,0.000885,0,0
0:2:5.012,482.285,27.2894,0,0.000885,0,0
0:2:6.810,490.492,27.7583,0,0.000885,0,0
0:2:8.614,498.294,28.1996,0,0.000885,0,0
0:2:10.430,505.803,28.6201,0,0.000885,0,0
0:2:12.221,514.366,29.1097,0,0.000885,0,0
0:2:14.020,522.226,29.5509,0,0.000885,0,0
0:2:15.822,530.143,29.9991,0,0.000885,0,0
0:2:17.617,538.235,30.461,0,0.000885,0,0
0:2:19.413,546.273,30.9092,0,0.000885,0,0
0:2:21.227,553.897,31.3436,0,0.000885,0,0
0:2:23.041,562.046,31.8055,0,0.000885,0,0
0:2:24.841,569.381,32.2192,0,0.000885,0,0
0:2:26.619,577.708,32.6949,0,0.000885,0,0
0:2:28.434,586.093,33.1638,0,0.000885,0,0
0:2:30.224,594.193,33.6257,0,0.000885,0,0
0:2:32.019,601.706,34.0463,0,0.000885,0,0
0:2:33.834,609.513,34.4945,0,0.000885,0,0
0:2:35.640,618.258,34.984,0,0.000885,0,0
0:2:37.430,625.714,35.4115,0,0.000885,0,0
0:2:39.239,633.347,35.8389,0,0.000885,0,0
0:2:41.028,641.683,36.3147,0,0.000885,0,0
0:2:42.831,649.018,36.7284,0,0.000885,0,0
0:2:44.638,657.589,37.211,0,0.000885,0,0
0:2:46.422,665.863,37.6798,0,0.000885,0,0
0:2:48.230,673.261,38.1004,0,0.000885,0,0
0:2:50.032,681.245,38.5486,0,0.000885,0,0
0:2:51.830,689.225,39.0036,0,0.000885,0,0
0:2:53.644,696.916,39.438,0,0.000885,0,0
0:2:55.441,704.901,39.8862,0,0.000885,0,0
0:2:57.225,712.472,40.3205,0,0.000885,0,0
0:2:59.041,721.395,40.8239,0,0.000885,0,0
0:3:0.826,728.966,41.2513,0,0.000885,0,0
0:3:2.617,736.892,41.6995,0,0.000885,0,0
0:3:4.429,744.405,42.127,0,0.000885,0,0
0:3:6.223,753.796,42.6579,0,0.000885,0,0
0:3:8.024,760.254,43.0233,0,0.000885,0,0
0:3:9.824,768.706,43.499,0,0.000885,0,0
0:3:11.634,776.455,43.9403,0,0.000885,0,0
0:3:13.439,783.968,44.3609,0,0.000885,0,0
0:3:15.234,792.54,44.8504,0,0.000885,0,0
0:3:17.022,800.462,45.2986,0,0.000885,0,0
0:3:18.830,808.562,45.7536,0,0.000885,0,0
0:3:20.631,816.605,46.2087,0,0.000885,0,0
0:3:22.433,824.233,46.643,0,0.000885,0,0
0:3:24.241,831.631,47.0636,0,0.000885,0,0
0:3:26.025,840.202,47.5462,0,0.000885,0,0
0:3:27.825,848.832,48.0358,0,0.000885,0,0
0:3:29.627,856.167,48.4495,0,0.000885,0,0
0:3:31.425,864.209,48.9045,0,0.000885,0,0
0:3:33.257,872.252,49.3596,0,0.000885,0,0
0:3:35.057,880.058,49.8008,0,0.000885,0,0
0:3:36.842,887.923,50.249,0,0.000885,0,0
0:3:38.649,896.201,50.7178,0,0.000885,0,0
0:3:40.443,904.123,51.166,0,0.000885,0,0
0:3:42.227,911.814,51.6004,0,0.000885,0,0
0:3:44.037,919.385,52.0278,0,0.000885,0,0
0:3:45.828,928.015,52.5174,0,0.000885,0,0
0:3:47.628,935.648,52.9448,0,0.000885,0,0
0:3:49.438,943.392,53.3861,0,0.000885,0,0
0:3:51.234,951.964,53.8687,0,0.000885,0,0
0:3:53.050,959.828,54.3169,0,0.000885,0,0
0:3:54.849,967.11,54.7306,0,0.000885,0,0
0:3:56.649,975.797,55.2201,0,0.000885,0,0
0:3:58.456,983.546,55.6545,0,0.000885,0,0
0:4:0.247,991.059,56.082,0,0.000885,0,0
0:4:2.042,999.275,56.5508,0,0.000885,0,0
0:4:3.856,1007.14,56.9921,0,0.000885,0,0
0:4:5.639,1015.6,57.4678,0,0.000885,0,0
0:4:7.439,1022.64,57.8677,0,0.000885,0,0
0:4:9.249,1031.27,58.3572,0,0.000885,0,0
0:4:11.035,1039.07,58.7985,0,0.000885,0,0
0:4:12.847,1046.71,59.2329,0,0.000885,0,0
0:4:14.653,1055.8,59.7431,0,0.000885,0,0
0:4:16.437,1063.2,60.1637,0,0.000885,0,0
0:4:18.244,1070.95,60.6049,0,0.000885,0,0
0:4:20.048,1079.64,61.0944,0,0.000885,0,0
0:4:21.830,1087.03,61.515,0,0.000885,0,0
0:4:23.640,1094.96,61.9632,0,0.000885,0,0
0:4:25.452,1101.88,62.3562,0,0.000885,0,0
0:4:27.236,1111.39,62.894,0,0.000885,0,0
0:4:29.051,1118.61,63.3008,0,0.000885,0,0
0:4:30.847,1126.42,63.742,0,0.000885,0,0
0:4:32.635,1134.7,64.2109,0,0.000885,0,0
0:4:34.448,1142.33,64.6452,0,0.000885,0,0
0:4:36.237,1150.13,65.0865,0,0.000885,0,0
0:4:38.049,1158.65,65.5691,0,0.000885,0,0
0:4:39.847,1166.04,65.9828,0,0.000885,0,0
0:4:41.641,1174.55,66.4655,0,0.000885,0,0
0:4:43.449,1182.12,66.8929,0,0.000885,0,0
0:4:45.242,1190.63,67.3756,0,0.000885,0,0
0:4:47.037,1197.74,67.7755,0,0.000885,0,0
0:4:48.853,1205.96,68.2443,0,0.000885,0,0
0:4:50.650,1214.12,68.7063,0,0.000885,0,0
0:4:52.450,1222.16,69.1613,0,0.000885,0,0
0:4:54.259,1229.38,69.5681,0,0.000885,0,0
0:4:56.058,1237.94,70.0507,0,0.000885,0,0
0:4:57.853,1246.16,70.5196,0,0.000885,0,0
0:4:59.658,1253.97,70.9608,0,0.000885,0,0
0:5:1.453,1262.37,71.4366,0,0.000885,0,0
0:5:3.261,1270,71.8641,0,0.000885,0,0
0:5:5.052,1277.81,72.3122,0,0.000885,0,0
0:5:6.840,1285.55,72.7466,0,0.000885,0,0
0:5:8.659,1294.01,73.2223,0,0.000885,0,0
0:5:10.451,1301.81,73.6705,0,0.000885,0,0
0:5:12.231,1309.21,74.0842,0,0.000885,0,0
0:5:14.045,1317.72,74.5668,0,0.000885,0,0
0:5:15.837,1325.58,75.015,0,0.000885,0,0
0:5:17.658,1333.1,75.4355,0,0.000885,0,0
0:5:19.469,1341.32,75.9044,0,0.000885,0,0
0:5:21.258,1349.36,76.3594,0,0.000885,0,0
0:5:23.056,1356.93,76.7869,0,0.000885,0,0
0:5:24.853,1365.15,77.2489,0,0.000885,0,0
0:5:26.642,1373.25,77.7108,0,0.000885,0,0
0:5:28.451,1381.47,78.1728,0,0.000885,0,0
0:5:30.253,1388.86,78.5933,0,0.000885,0,0
0:5:32.047,1397.14,79.0622,0,0.000885,0,0
0:5:33.858,1405.24,79.5172,0,0.000885,0,0
0:5:35.655,1412.64,79.9378,0,0.000885,0,0
0:5:37.446,1420.97,80.4136,0,0.000885,0,0
0:5:39.260,1428.72,80.8479,0,0.000885,0,0
0:5:41.047,1436.7,81.303,0,0.000885,0,0
0:5:42.838,1445.16,81.7787,0,0.000885,0,0
0:5:44.647,1452.9,82.22,0,0.000885,0,0
0:5:46.441,1460.59,82.6544,0,0.000885,0,0
0:5:48.263,1468.52,83.1025,0,0.000885,0,0
0:5:50.056,1476.56,83.5576,0,0.000885,0,0
0:5:51.846,1484.27,83.9919,0,0.000885,0,0
0:5:53.657,1492.16,84.4401,0,0.000885,0,0
0:5:55.446,1501.11,84.9434,0,0.000885,0,0
0:5:57.258,1508.35,85.3571,0,0.000885,0,0
0:5:59.068,1516.36,85.8053,0,0.000885,0,0
0:6:0.857,1524.72,86.281,0,0.000885,0,0
0:6:2.659,1532.14,86.7016,0,0.000885,0,0
0:6:4.468,1539.91,87.1428,0,0.000885,0,0
0:6:6.255,1548.33,87.6186,0,0.000885,0,0
0:6:8.056,1556.22,88.0667,0,0.000885,0,0
0:6:9.857,1563.94,88.5011,0,0.000885,0,0
0:6:11.656,1572.59,88.9906,0,0.000885,0,0
0:6:13.473,1580.31,89.425,0,0.000885,0,0
0:6:15.265,1588.14,89.8732,0,0.000885,0,0
0:6:17.061,1595.38,90.28,0,0.000885,0,0
0:6:18.874,1603.68,90.7488,0,0.000885,0,0
0:6:20.661,1611.93,91.2176,0,0.000885,0,0
0:6:22.459,1619.58,91.652,0,0.000885,0,0
0:6:24.270,1627.94,92.1209,0,0.000885,0,0
0:6:26.060,1635.66,92.5621,0,0.000885,0,0
0:6:27.860,1643.6,93.0103,0,0.000885,0,0
0:6:29.659,1651.55,93.4584,0,0.000885,0,0
0:6:31.445,1659.68,93.9204,0,0.000885,0,0
0:6:33.249,1667.16,94.341,0,0.000885,0,0
0:6:35.053,1674.99,94.7822,0,0.000885,0,0
0:6:36.849,1683.41,95.2649,0,0.000885,0,0
0:6:38.660,1691.18,95.6992,0,0.000885,0,0
0:6:40.450,1698.78,96.1336,0,0.000885,0,0
0:6:42.247,1707.32,96.6162,0,0.000885,0,0
0:6:44.073,1714.79,97.0368,0,0.000885,0,0
0:6:45.861,1722.86,97.4919,0,0.000885,0,0
0:6:47.655,1731.58,97.9883,0,0.000885,0,0
0:6:49.460,1738.82,98.3951,0,0.000885,0,0
0:6:51.255,1746.95,98.857,0,0.000885,0,0
0:6:53.057,1754.66,99.2914,0,0.000885,0,0
0:6:54.855,1762.73,99.7533,0,0.000885,0,0
0:6:56.650,1770.68,100.202,0,0.000885,0,0
0:6:58.453,1778.68,100.65,0,0.000885,0,0
0:7:0.254,1641.6,92.8931,0,0.000885,0,0
0:7:2.056,1617.81,91.5486,0,0.000885,0,0
0:7:3.863,1635.13,92.5276,0,0.000885,0,0
0:7:5.651,1650.32,93.3895,0,0.000885,0,0
0:7:7.448,1419.39,80.3239,0,0.000885,0,0
0:7:9.251,1383.52,78.29,0,0.000885,0,0
0:7:9.826,1282.32,72.5673,0,0.000885,0,0