File: DataFile2021-06-24_063505.csv
Test ID:,Date Tested:,Time:,Test Type:,Diameter Avg. (mm):,Cyl. Corr. Factor:,Height (mm):,Age (days):,Weight (kN):,Break Type:,Ramp Rate (MPa/s):,Load at Break (kN):,Stress at Break (MPa):
12,6/24/2021,06:35,Cylinder,150,1,300,0,3.6,2,0.24,597.01,33.78
Sample Time,Load (kN),Stress (MPa),Long. Strain,Trans. Strain,Chan1 Deflection (mm),Chan2 Deflection (mm)
0:0:23.242,5.92503,0.337843,0,0.000885,0,0
0:0:23.840,19.2964,1.08937,0,0.000885,0,0
0:0:24.442,17.8285,1.00663,0,0.000885,0,0
0:0:25.035,17.1835,0.972161,0,0.000885,0,0
0:0:25.625,17.4192,0.98595,0,0.000885,0,0
0:0:26.232,16.9522,0.958371,0,0.000885,0,0
0:0:26.839,19.6478,1.11006,0,0.000885,0,0
0:0:27.438,21.7607,1.23416,0,0.000885,0,0
0:0:28.032,25.0435,1.42032,0,0.000885,0,0
0:0:28.645,29.5584,1.67543,0,0.000885,0,0
0:0:29.254,33.1971,1.87537,0,0.000885,0,0
0:0:29.857,36.2441,2.04774,0,0.000885,0,0
0:0:30.458,38.1213,2.15806,0,0.000885,0,0
0:0:31.056,40.5277,2.29595,0,0.000885,0,0
0:0:31.650,42.3471,2.39938,0,0.000885,0,0
0:0:32.248,45.3941,2.57174,0,0.000885,0,0
0:0:32.844,47.3291,2.67517,0,0.000885,0,0
0:0:33.442,49.9713,2.82685,0,0.000885,0,0
0:0:34.050,53.6633,3.03369,0,0.000885,0,0
0:0:34.654,56.012,3.17159,0,0.000885,0,0
0:0:35.260,58.3562,3.30259,0,0.000885,0,0
0:0:35.853,61.3499,3.47496,0,0.000885,0,0
0:0:36.451,64.1033,3.62664,0,0.000885,0,0
0:0:37.049,65.9805,3.73696,0,0.000885,0,0
0:0:37.649,69.3255,3.92312,0,0.000885,0,0
0:0:38.245,71.7898,4.06101,0,0.000885,0,0
0:0:38.844,74.0184,4.18512,0,0.000885,0,0
0:0:39.454,77.1855,4.36438,0,0.000885,0,0
0:0:40.059,79.4141,4.49538,0,0.000885,0,0
0:0:40.659,82.4033,4.66086,0,0.000885,0,0
0:0:41.257,84.6319,4.79186,0,0.000885,0,0
0:0:41.856,87.9191,4.97801,0,0.000885,0,0
0:0:42.451,90.2633,5.10902,0,0.000885,0,0
0:0:43.046,93.079,5.26759,0,0.000885,0,0
0:0:43.645,95.4811,5.40549,0,0.000885,0,0
0:0:44.252,98.0032,5.54338,0,0.000885,0,0
0:0:44.859,101.233,5.72954,0,0.000885,0,0
0:0:45.462,103.461,5.85365,0,0.000885,0,0
0:0:46.059,106.272,6.01223,0,0.000885,0,0
0:0:46.656,108.679,6.15012,0,0.000885,0,0
0:0:47.256,111.73,6.32249,0,0.000885,0,0
0:0:47.854,114.31,6.46728,0,0.000885,0,0
0:0:48.453,116.245,6.5776,0,0.000885,0,0
0:0:49.062,119.528,6.76376,0,0.000885,0,0
0:0:49.667,121.992,6.90165,0,0.000885,0,0
0:0:50.267,125.28,7.08781,0,0.000885,0,0
0:0:50.866,127.566,7.21881,0,0.000885,0,0
0:0:51.466,129.91,7.34981,0,0.000885,0,0
0:0:52.060,132.61,7.5015,0,0.000885,0,0
0:0:52.657,135.778,7.68076,0,0.000885,0,0
0:0:53.254,137.77,7.79797,0,0.000885,0,0
0:0:53.862,140.292,7.93587,0,0.000885,0,0
0:0:54.467,143.753,8.13581,0,0.000885,0,0
0:0:55.071,145.746,8.24613,0,0.000885,0,0
0:0:55.668,148.855,8.42539,0,0.000885,0,0
0:0:56.264,151.2,8.55639,0,0.000885,0,0
0:0:56.864,154.367,8.73566,0,0.000885,0,0
0:0:57.462,156.773,8.87355,0,0.000885,0,0
0:0:58.059,159.469,9.02524,0,0.000885,0,0
0:0:58.658,161.933,9.16313,0,0.000885,0,0
0:0:59.267,164.162,9.28724,0,0.000885,0,0
0:0:59.872,167.271,9.4665,0,0.000885,0,0
0:1:0.472,169.735,9.6044,0,0.000885,0,0
0:1:1.071,172.782,9.77677,0,0.000885,0,0
0:1:1.668,175.304,9.92156,0,0.000885,0,0
0:1:2.264,178.182,10.0801,0,0.000885,0,0
0:1:2.861,180.7,10.2249,0,0.000885,0,0
0:1:3.460,182.813,10.3421,0,0.000885,0,0
0:1:4.068,185.807,10.5145,0,0.000885,0,0
0:1:4.673,187.915,10.6317,0,0.000885,0,0
0:1:5.276,191.496,10.8386,0,0.000885,0,0
0:1:5.868,193.431,10.9489,0,0.000885,0,0
0:1:6.461,196.829,11.135,0,0.000885,0,0
0:1:7.056,199.12,11.266,0,0.000885,0,0
0:1:7.651,201.113,11.3832,0,0.000885,0,0
0:1:8.243,204.338,11.5625,0,0.000885,0,0
0:1:8.839,207.154,11.7211,0,0.000885,0,0
0:1:9.444,209.969,11.8797,0,0.000885,0,0
0:1:10.045,212.549,12.0245,0,0.000885,0,0
0:1:10.641,215.014,12.1692,0,0.000885,0,0
0:1:11.244,217.887,12.3278,0,0.000885,0,0
0:1:11.844,220,12.4519,0,0.000885,0,0
0:1:12.446,222.874,12.6105,0,0.000885,0,0
0:1:13.038,225.334,12.7484,0,0.000885,0,0
0:1:13.643,228.269,12.9139,0,0.000885,0,0
0:1:14.247,230.556,13.0449,0,0.000885,0,0
0:1:14.849,233.545,13.2172,0,0.000885,0,0
0:1:15.446,235.951,13.3551,0,0.000885,0,0
0:1:16.038,238.122,13.4724,0,0.000885,0,0
0:1:16.642,241.756,13.6792,0,0.000885,0,0
0:1:17.244,244.105,13.8102,0,0.000885,0,0
0:1:17.840,246.565,13.955,0,0.000885,0,0
0:1:18.442,249.381,14.1136,0,0.000885,0,0
0:1:19.047,252.023,14.2584,0,0.000885,0,0
0:1:19.648,254.776,14.4169,0,0.000885,0,0
0:1:20.242,256.653,14.5204,0,0.000885,0,0
0:1:20.837,260.35,14.7341,0,0.000885,0,0
0:1:21.441,262.169,14.8375,0,0.000885,0,0
0:1:22.032,265.51,15.0237,0,0.000885,0,0
0:1:22.644,268.21,15.1754,0,0.000885,0,0
0:1:23.237,270.848,15.327,0,0.000885,0,0
0:1:23.841,273.37,15.4718,0,0.000885,0,0
0:1:24.443,275.776,15.6028,0,0.000885,0,0
0:1:25.043,278.414,15.7545,0,0.000885,0,0
0:1:25.644,280.758,15.8855,0,0.000885,0,0
0:1:26.235,283.868,16.0648,0,0.000885,0,0
0:1:26.841,286.154,16.1958,0,0.000885,0,0
0:1:27.446,289.793,16.3957,0,0.000885,0,0
0:1:28.039,291.906,16.5198,0,0.000885,0,0
0:1:28.631,294.014,16.637,0,0.000885,0,0
0:1:29.239,297.066,16.8094,0,0.000885,0,0
0:1:29.840,299.001,16.9197,0,0.000885,0,0
0:1:30.444,302.11,17.099,0,0.000885,0,0
0:1:31.041,305.219,17.2714,0,0.000885,0,0
0:1:31.642,307.741,17.4162,0,0.000885,0,0
0:1:32.242,310.028,17.5472,0,0.000885,0,0
0:1:32.833,313.195,17.7264,0,0.000885,0,0
0:1:33.439,315.303,17.8436,0,0.000885,0,0
0:1:34.043,317.888,17.9884,0,0.000885,0,0
0:1:34.647,321.17,18.1746,0,0.000885,0,0
0:1:35.245,323.163,18.2849,0,0.000885,0,0
0:1:35.847,326.157,18.4573,0,0.000885,0,0
0:1:36.436,328.853,18.6089,0,0.000885,0,0
0:1:37.031,331.317,18.7468,0,0.000885,0,0
0:1:37.625,334.306,18.9192,0,0.000885,0,0
0:1:38.241,336.948,19.064,0,0.000885,0,0
0:1:38.848,339.644,19.2226,0,0.000885,0,0
0:1:39.450,342.05,19.3536,0,0.000885,0,0
0:1:40.051,344.688,19.5053,0,0.000885,0,0
0:1:40.647,347.446,19.6638,0,0.000885,0,0
0:1:41.241,349.733,19.788,0,0.000885,0,0
0:1:41.841,352.019,19.919,0,0.000885,0,0
0:1:42.443,355.773,20.1327,0,0.000885,0,0
0:1:43.046,358.411,20.2844,0,0.000885,0,0
0:1:43.639,359.879,20.3671,0,0.000885,0,0
0:1:44.243,363.224,20.5533,0,0.000885,0,0
0:1:44.845,365.453,20.6774,0,0.000885,0,0
0:1:45.442,368.793,20.8704,0,0.000885,0,0
0:1:46.041,371.373,21.0152,0,0.000885,0,0
0:1:46.633,373.895,21.16,0,0.000885,0,0
0:1:47.239,376.48,21.3048,0,0.000885,0,0
0:1:47.843,379.233,21.4634,0,0.000885,0,0
0:1:48.436,381.697,21.6013,0,0.000885,0,0
0:1:49.041,384.162,21.7392,0,0.000885,0,0
0:1:49.642,387.387,21.9184,0,0.000885,0,0
0:1:50.235,390.025,22.0701,0,0.000885,0,0
0:1:50.841,392.604,22.2149,0,0.000885,0,0
0:1:51.445,395.305,22.3666,0,0.000885,0,0
0:1:52.037,397.711,22.5045,0,0.000885,0,0
0:1:52.637,400.585,22.67,0,0.000885,0,0
0:1:53.237,402.226,22.7596,0,0.000885,0,0
0:1:53.843,405.157,22.9251,0,0.000885,0,0
0:1:54.445,407.857,23.0768,0,0.000885,0,0
0:1:55.046,411.727,23.2974,0,0.000885,0,0
0:1:55.648,413.605,23.4077,0,0.000885,0,0
0:1:56.237,416.42,23.5663,0,0.000885,0,0
0:1:56.837,418.707,23.6973,0,0.000885,0,0
0:1:57.443,421.171,23.8352,0,0.000885,0,0
0:1:58.035,424.454,24.0213,0,0.000885,0,0
0:1:58.641,426.095,24.111,0,0.000885,0,0
0:1:59.247,429.32,24.2971,0,0.000885,0,0
0:1:59.847,432.02,24.4488,0,0.000885,0,0
0:2:0.443,435.539,24.6488,0,0.000885,0,0
0:2:1.043,437.767,24.7729,0,0.000885,0,0
0:2:1.636,440.174,24.9108,0,0.000885,0,0
0:2:2.241,442.869,25.0624,0,0.000885,0,0
0:2:2.844,445.569,25.2141,0,0.000885,0,0
0:2:3.436,447.678,25.3313,0,0.000885,0,0
0:2:4.044,450.729,25.5037,0,0.000885,0,0
0:2:4.649,453.661,25.6692,0,0.000885,0,0
0:2:5.251,455.832,25.7933,0,0.000885,0,0
0:2:5.845,459.177,25.9863,0,0.000885,0,0
0:2:6.449,461.285,26.1036,0,0.000885,0,0
0:2:7.039,463.571,26.2346,0,0.000885,0,0
0:2:7.642,466.449,26.3931,0,0.000885,0,0
0:2:8.245,468.851,26.531,0,0.000885,0,0
0:2:8.848,472.312,26.7241,0,0.000885,0,0
0:2:9.451,474.541,26.8551,0,0.000885,0,0
0:2:10.052,477.005,26.993,0,0.000885,0,0
0:2:10.642,479.879,27.1584,0,0.000885,0,0
0:2:11.244,483.046,27.3377,0,0.000885,0,0
0:2:11.833,485.096,27.448,0,0.000885,0,0
0:2:12.428,487.503,27.5859,0,0.000885,0,0
0:2:13.033,490.141,27.7376,0,0.000885,0,0
0:2:13.650,493.134,27.9031,0,0.000885,0,0
0:2:14.255,496.123,28.0755,0,0.000885,0,0
0:2:14.855,498.179,28.1927,0,0.000885,0,0
0:2:15.450,501.288,28.365,0,0.000885,0,0
0:2:16.040,503.748,28.5029,0,0.000885,0,0
0:2:16.646,505.918,28.627,0,0.000885,0,0
0:2:17.238,508.85,28.7925,0,0.000885,0,0
0:2:17.850,511.55,28.9511,0,0.000885,0,0
0:2:18.444,514.308,29.1028,0,0.000885,0,0
0:2:19.045,516.594,29.2338,0,0.000885,0,0
0:2:19.648,519.704,29.4061,0,0.000885,0,0
0:2:20.249,521.581,29.5165,0,0.000885,0,0
0:2:20.843,525.157,29.7164,0,0.000885,0,0
0:2:21.446,527.386,29.8405,0,0.000885,0,0
0:2:22.045,530.201,30.006,0,0.000885,0,0
0:2:22.649,533.191,30.1715,0,0.000885,0,0
0:2:23.241,535.188,30.2887,0,0.000885,0,0
0:2:23.846,538.177,30.4541,0,0.000885,0,0
0:2:24.447,540.463,30.5851,0,0.000885,0,0
0:2:25.044,543.279,30.7437,0,0.000885,0,0
0:2:25.646,546.037,30.9023,0,0.000885,0,0
0:2:26.237,548.323,31.0264,0,0.000885,0,0
0:2:26.852,551.255,31.1919,0,0.000885,0,0
0:2:27.446,553.483,31.3229,0,0.000885,0,0
0:2:28.040,556.241,31.4746,0,0.000885,0,0
0:2:28.645,559.173,31.64,0,0.000885,0,0
0:2:29.250,561.93,31.7986,0,0.000885,0,0
0:2:29.852,564.275,31.9296,0,0.000885,0,0
0:2:30.446,566.33,32.0468,0,0.000885,0,0
0:2:31.039,569.319,32.2192,0,0.000885,0,0
0:2:31.642,571.61,32.3433,0,0.000885,0,0
0:2:32.236,574.95,32.5364,0,0.000885,0,0
0:2:32.847,577.473,32.6811,0,0.000885,0,0
0:2:33.450,580.173,32.8328,0,0.000885,0,0
0:2:34.054,582.868,32.9845,0,0.000885,0,0
0:2:34.656,585.097,33.1086,0,0.000885,0,0
0:2:35.256,587.152,33.2258,0,0.000885,0,0
0:2:35.849,589.318,33.3499,0,0.000885,0,0
0:2:36.440,591.022,33.4465,0,0.000885,0,0
0:2:37.046,593.313,33.5775,0,0.000885,0,0
0:2:37.641,595.248,33.6809,0,0.000885,0,0
0:2:38.237,596.186,33.736,0,0.000885,0,0
0:2:38.847,597.067,33.7843,0,0.000885,0,0
0:2:39.453,595.777,33.7154,0,0.000885,0,0
0:2:40.053,587.503,33.2465,0,0.000885,0,0
0:2:40.642,555.481,31.4332,0,0.000885,0,0
0:2:41.242,509.495,28.8339,0,0.000885,0,0
0:2:41.836,475.657,26.9171,0,0.000885,0,0
0:2:42.437,457.121,25.8691,0,0.000885,0,0
0:2:43.038,435.481,24.6419,0,0.000885,0,0
0:2:43.642,420.464,23.7938,0,0.000885,0,0
0:2:43.703,420.464,23.7938,0,0.000885,0,0