File: DataFile2021-07-03_070751.csv
Test ID:,Date Tested:,Time:,Test Type:,Diameter Avg. (mm):,Cyl. Corr. Factor:,Height (mm):,Age (days):,Weight (kN):,Break Type:,Ramp Rate (MPa/s):,Load at Break (kN):,Stress at Break (MPa):
12,7/3/2021,07:07,Cylinder,100,1,200,0,3.6,3,0.25,1020.94,129.99
Sample Time,Load (kN),Stress (MPa),Long. Strain,Trans. Strain,Chan1 Deflection (mm),Chan2 Deflection (mm)
0:0:18.229,5.63145,0.717055,0,0.000885,0,0
0:0:20.440,9.5014,1.20658,0,0.000885,0,0
0:0:22.631,13.4915,1.71679,0,0.000885,0,0
0:0:24.845,18.1799,2.31664,0,0.000885,0,0
0:0:27.037,22.637,2.88201,0,0.000885,0,0
0:0:29.248,27.0986,3.44738,0,0.000885,0,0
0:0:31.446,31.2043,3.97138,0,0.000885,0,0
0:0:33.645,35.2477,4.48849,0,0.000885,0,0
0:0:35.856,39.8249,5.06765,0,0.000885,0,0
0:0:38.044,44.3399,5.64681,0,0.000885,0,0
0:0:40.261,48.6191,6.19149,0,0.000885,0,0
0:0:42.450,53.0184,6.74997,0,0.000885,0,0
0:0:44.661,57.1241,7.27397,0,0.000885,0,0
0:0:46.853,61.3499,7.81176,0,0.000885,0,0
0:0:49.056,66.1584,8.42539,0,0.000885,0,0
0:0:51.256,70.0862,8.92182,0,0.000885,0,0
0:0:53.446,73.8983,9.41134,0,0.000885,0,0
0:0:55.662,79.0627,10.0663,0,0.000885,0,0
0:0:57.848,83.2841,10.6041,0,0.000885,0,0
0:1:0.061,86.8026,11.0523,0,0.000885,0,0
0:1:2.252,91.7312,11.6797,0,0.000885,0,0
0:1:4.452,96.3618,12.2727,0,0.000885,0,0
0:1:6.652,99.9426,12.7277,0,0.000885,0,0
0:1:8.842,104.458,13.3,0,0.000885,0,0
0:1:11.051,108.679,13.8378,0,0.000885,0,0
0:1:13.241,113.372,14.4376,0,0.000885,0,0
0:1:15.456,117.713,14.9892,0,0.000885,0,0
0:1:17.636,121.757,15.4994,0,0.000885,0,0
0:1:19.850,126.04,16.051,0,0.000885,0,0
0:1:22.033,130.555,16.6233,0,0.000885,0,0
0:1:24.247,134.603,17.1404,0,0.000885,0,0
0:1:26.441,138.709,17.6575,0,0.000885,0,0
0:1:28.641,143.402,18.2573,0,0.000885,0,0
0:1:30.852,147.801,18.8158,0,0.000885,0,0
0:1:33.045,152.196,19.3812,0,0.000885,0,0
0:1:35.251,156.186,19.8845,0,0.000885,0,0
0:1:37.451,161.524,20.5671,0,0.000885,0,0
0:1:39.656,164.807,20.9807,0,0.000885,0,0
0:1:41.845,168.797,21.491,0,0.000885,0,0
0:1:44.050,174.135,22.1735,0,0.000885,0,0
0:1:46.255,178.12,22.6769,0,0.000885,0,0
0:1:48.449,182.64,23.256,0,0.000885,0,0
0:1:50.662,186.452,23.7386,0,0.000885,0,0
0:1:52.851,191.082,24.3316,0,0.000885,0,0
0:1:55.055,195.246,24.8625,0,0.000885,0,0
0:1:57.246,199.529,25.4072,0,0.000885,0,0
0:1:59.446,203.164,25.8691,0,0.000885,0,0
0:2:1.648,208.266,26.5172,0,0.000885,0,0
0:2:3.849,212.665,27.0757,0,0.000885,0,0
0:2:6.051,216.597,27.579,0,0.000885,0,0
0:2:8.240,221.464,28.1996,0,0.000885,0,0
0:2:10.441,225.569,28.7236,0,0.000885,0,0
0:2:12.623,229.853,29.2682,0,0.000885,0,0
0:2:14.827,233.781,29.7647,0,0.000885,0,0
0:2:17.003,238.883,30.4128,0,0.000885,0,0
0:2:19.186,242.753,30.9092,0,0.000885,0,0
0:2:21.369,246.979,31.447,0,0.000885,0,0
0:2:23.542,251.142,31.9779,0,0.000885,0,0
0:2:25.741,256.129,32.6122,0,0.000885,0,0
0:2:27.940,260.114,33.1155,0,0.000885,0,0
0:2:30.149,264.571,33.6878,0,0.000885,0,0
0:2:32.340,267.796,34.0946,0,0.000885,0,0
0:2:34.540,272.667,34.7151,0,0.000885,0,0
0:2:36.749,277.182,35.2943,0,0.000885,0,0
0:2:38.940,281.288,35.8114,0,0.000885,0,0
0:2:41.143,285.158,36.3078,0,0.000885,0,0
0:2:43.317,290.322,36.9628,0,0.000885,0,0
0:2:45.516,294.134,37.4523,0,0.000885,0,0
0:2:47.687,299.174,38.0935,0,0.000885,0,0
0:2:49.882,302.991,38.5762,0,0.000885,0,0
0:2:52.057,307.328,39.1277,0,0.000885,0,0
0:2:54.261,311.785,39.7,0,0.000885,0,0
0:2:56.439,316.184,40.2585,0,0.000885,0,0
0:2:58.640,319.938,40.7342,0,0.000885,0,0
0:3:0.848,323.986,41.2513,0,0.000885,0,0
0:3:3.021,328.795,41.865,0,0.000885,0,0
0:3:5.216,332.665,42.3545,0,0.000885,0,0
0:3:7.384,337.122,42.9268,0,0.000885,0,0
0:3:9.588,341.993,43.5404,0,0.000885,0,0
0:3:11.763,346.156,44.0713,0,0.000885,0,0
0:3:13.946,350.555,44.6367,0,0.000885,0,0
0:3:16.135,354.719,45.1676,0,0.000885,0,0
0:3:18.311,359.118,45.726,0,0.000885,0,0
0:3:20.508,362.988,46.2156,0,0.000885,0,0
0:3:22.675,367.33,46.7671,0,0.000885,0,0
0:3:24.876,371.435,47.2911,0,0.000885,0,0
0:3:27.050,375.715,47.8358,0,0.000885,0,0
0:3:29.256,380.292,48.4219,0,0.000885,0,0
0:3:31.448,384.335,48.9321,0,0.000885,0,0
0:3:33.654,388.912,49.5181,0,0.000885,0,0
0:3:35.848,393.837,50.1456,0,0.000885,0,0
0:3:38.019,397.591,50.6213,0,0.000885,0,0
0:3:40.214,401.461,51.1177,0,0.000885,0,0
0:3:42.387,405.567,51.6417,0,0.000885,0,0
0:3:44.581,409.85,52.1864,0,0.000885,0,0
0:3:46.752,414.365,52.7587,0,0.000885,0,0
0:3:48.959,418.587,53.2965,0,0.000885,0,0
0:3:51.161,423.164,53.8756,0,0.000885,0,0
0:3:53.363,427.269,54.3996,0,0.000885,0,0
0:3:55.562,432.194,55.0271,0,0.000885,0,0
0:3:57.751,436.242,55.5442,0,0.000885,0,0
0:3:59.957,440.347,56.0682,0,0.000885,0,0
0:4:2.158,444.747,56.6266,0,0.000885,0,0
0:4:4.362,449.088,57.1782,0,0.000885,0,0
0:4:6.547,453.545,57.7505,0,0.000885,0,0
0:4:8.767,457.882,58.3021,0,0.000885,0,0
0:4:10.958,462.224,58.8536,0,0.000885,0,0
0:4:13.140,466.801,59.4328,0,0.000885,0,0
0:4:15.336,470.907,59.9568,0,0.000885,0,0
0:4:17.509,474.95,60.4739,0,0.000885,0,0
0:4:19.709,479.234,61.0186,0,0.000885,0,0
0:4:21.882,483.161,61.515,0,0.000885,0,0
0:4:24.078,487.854,62.1149,0,0.000885,0,0
0:4:26.262,492.311,62.6802,0,0.000885,0,0
0:4:28.467,496.653,63.2387,0,0.000885,0,0
0:4:30.653,500.816,63.7627,0,0.000885,0,0
0:4:32.825,504.806,64.2729,0,0.000885,0,0
0:4:35.023,509.264,64.8383,0,0.000885,0,0
0:4:37.200,513.369,65.3623,0,0.000885,0,0
0:4:39.400,518.12,65.969,0,0.000885,0,0
0:4:41.568,522.577,66.5344,0,0.000885,0,0
0:4:43.756,526.563,67.0446,0,0.000885,0,0
0:4:45.956,531.082,67.6169,0,0.000885,0,0
0:4:48.149,534.716,68.0788,0,0.000885,0,0
0:4:50.354,539.761,68.7269,0,0.000885,0,0
0:4:52.528,543.982,69.2647,0,0.000885,0,0
0:4:54.730,547.856,69.7543,0,0.000885,0,0
0:4:56.901,552.371,70.3265,0,0.000885,0,0
0:4:59.102,556.65,70.8781,0,0.000885,0,0
0:5:1.276,561.108,71.4435,0,0.000885,0,0
0:5:3.465,564.982,71.933,0,0.000885,0,0
0:5:5.654,569.261,72.4777,0,0.000885,0,0
0:5:7.860,574.012,73.0844,0,0.000885,0,0
0:5:10.059,578.118,73.6084,0,0.000885,0,0
0:5:12.261,582.108,74.1186,0,0.000885,0,0
0:5:14.462,587.09,74.753,0,0.000885,0,0
0:5:16.650,591.436,75.3045,0,0.000885,0,0
0:5:18.879,595.368,75.8079,0,0.000885,0,0
0:5:21.075,600.354,76.4422,0,0.000885,0,0
0:5:23.282,604.291,76.9386,0,0.000885,0,0
0:5:25.475,608.517,77.4764,0,0.000885,0,0
0:5:27.655,612.507,77.9866,0,0.000885,0,0
0:5:29.872,617.262,78.5933,0,0.000885,0,0
0:5:32.059,621.43,79.1242,0,0.000885,0,0
0:5:34.266,625.949,79.6965,0,0.000885,0,0
0:5:36.470,630.233,80.2412,0,0.000885,0,0
0:5:38.675,634.637,80.8066,0,0.000885,0,0
0:5:40.871,638.689,81.3168,0,0.000885,0,0
0:5:43.061,642.973,81.8683,0,0.000885,0,0
0:5:45.275,647.608,82.4544,0,0.000885,0,0
0:5:47.457,651.54,82.9577,0,0.000885,0,0
0:5:49.674,656.295,83.5645,0,0.000885,0,0
0:5:51.863,660.227,84.0609,0,0.000885,0,0
0:5:54.069,664.222,84.5711,0,0.000885,0,0
0:5:56.266,668.857,85.164,0,0.000885,0,0
0:5:58.477,673.261,85.7225,0,0.000885,0,0
0:6:0.671,677.371,86.2465,0,0.000885,0,0
0:6:2.864,681.948,86.8257,0,0.000885,0,0
0:6:5.065,686.294,87.3842,0,0.000885,0,0
0:6:7.252,690.52,87.9219,0,0.000885,0,0
0:6:9.470,694.51,88.4253,0,0.000885,0,0
0:6:11.651,698.971,88.9975,0,0.000885,0,0
0:6:13.855,703.784,89.6112,0,0.000885,0,0
0:6:16.046,707.952,90.1421,0,0.000885,0,0
0:6:18.238,712.178,90.6798,0,0.000885,0,0
0:6:20.440,716.582,91.2383,0,0.000885,0,0
0:6:22.626,720.63,91.7554,0,0.000885,0,0
0:6:24.831,725.385,92.3622,0,0.000885,0,0
0:6:27.017,729.437,92.8724,0,0.000885,0,0
0:6:29.226,733.779,93.4309,0,0.000885,0,0
0:6:31.408,738.067,93.9755,0,0.000885,0,0
0:6:33.609,742.466,94.534,0,0.000885,0,0
0:6:35.804,746.576,95.058,0,0.000885,0,0
0:6:37.989,750.686,95.582,0,0.000885,0,0
0:6:40.195,755.379,96.175,0,0.000885,0,0
0:6:42.377,759.547,96.7059,0,0.000885,0,0
0:6:44.589,763.951,97.2712,0,0.000885,0,0
0:6:46.769,768.412,97.8366,0,0.000885,0,0
0:6:48.968,772.167,98.3123,0,0.000885,0,0
0:6:51.176,776.864,98.9122,0,0.000885,0,0
0:6:53.389,781.09,99.45,0,0.000885,0,0
0:6:55.589,785.845,100.057,0,0.000885,0,0
0:6:57.775,789.368,100.505,0,0.000885,0,0
0:6:59.980,794.532,101.16,0,0.000885,0,0
0:7:2.182,798.055,101.615,0,0.000885,0,0
0:7:4.390,802.868,102.222,0,0.000885,0,0
0:7:6.571,807.094,102.759,0,0.000885,0,0
0:7:8.778,811.32,103.297,0,0.000885,0,0
0:7:10.978,815.96,103.89,0,0.000885,0,0
0:7:13.171,819.478,104.338,0,0.000885,0,0
0:7:15.386,824.469,104.973,0,0.000885,0,0
0:7:17.579,828.401,105.476,0,0.000885,0,0
0:7:19.789,832.921,106.048,0,0.000885,0,0
0:7:21.979,837.151,106.586,0,0.000885,0,0
0:7:24.199,841.67,107.165,0,0.000885,0,0
0:7:26.385,845.838,107.696,0,0.000885,0,0
0:7:28.589,849.708,108.186,0,0.000885,0,0
0:7:30.784,854.583,108.806,0,0.000885,0,0
0:7:32.979,859.045,109.378,0,0.000885,0,0
0:7:35.185,863.329,109.923,0,0.000885,0,0
0:7:37.385,867.612,110.468,0,0.000885,0,0
0:7:39.594,871.722,110.992,0,0.000885,0,0
0:7:41.776,876.535,111.605,0,0.000885,0,0
0:7:43.989,880.41,112.095,0,0.000885,0,0
0:7:46.183,884.871,112.667,0,0.000885,0,0
0:7:48.389,889.506,113.253,0,0.000885,0,0
0:7:50.585,893.087,113.708,0,0.000885,0,0
0:7:52.787,897.842,114.315,0,0.000885,0,0
0:7:55.001,902.424,114.901,0,0.000885,0,0
0:7:57.189,906.53,115.425,0,0.000885,0,0
0:7:59.396,910.289,115.901,0,0.000885,0,0
0:8:1.590,915.101,116.515,0,0.000885,0,0
0:8:3.803,919.737,117.107,0,0.000885,0,0
0:8:5.988,924.14,117.666,0,0.000885,0,0
0:8:8.192,927.957,118.149,0,0.000885,0,0
0:8:10.393,932.476,118.728,0,0.000885,0,0
0:8:12.584,936.818,119.279,0,0.000885,0,0
0:8:14.791,941.221,119.838,0,0.000885,0,0
0:8:16.985,945.038,120.327,0,0.000885,0,0
0:8:19.204,950.029,120.962,0,0.000885,0,0
0:8:21.392,953.668,121.424,0,0.000885,0,0
0:8:23.604,958.89,122.092,0,0.000885,0,0
0:8:25.795,962.235,122.513,0,0.000885,0,0
0:8:27.990,966.874,123.106,0,0.000885,0,0
0:8:30.192,971.803,123.733,0,0.000885,0,0
0:8:32.386,975.504,124.202,0,0.000885,0,0
0:8:34.604,979.965,124.774,0,0.000885,0,0
0:8:36.781,983.604,125.236,0,0.000885,0,0
0:8:39.003,988.826,125.898,0,0.000885,0,0
0:8:41.183,993.114,126.45,0,0.000885,0,0
0:8:43.391,997.162,126.96,0,0.000885,0,0
0:8:45.594,1001.68,127.539,0,0.000885,0,0
0:8:47.789,1005.61,128.036,0,0.000885,0,0
0:8:49.994,1009.67,128.553,0,0.000885,0,0
0:8:52.189,991.998,126.305,0,0.000885,0,0
0:8:54.403,1018.47,129.677,0,0.000885,0,0
0:8:56.006,924.785,117.749,0,0.000885,0,0