File: DataFile2021-06-08_075306.csv
Test ID:,Date Tested:,Time:,Test Type:,Diameter Avg. (mm):,Cyl. Corr. Factor:,Height (mm):,Age (days):,Weight (kN):,Break Type:,Ramp Rate (MPa/s):,Load at Break (kN):,Stress at Break (MPa):
12,6/8/2021,07:53,Cylinder,100,1,200,0,3.6,3,0.25,544.98,69.39
Sample Time,Load (kN),Stress (MPa),Long. Strain,Trans. Strain,Chan1 Deflection (mm),Chan2 Deflection (mm)
0:0:12.960,5.39569,0.689476,0,0.000885,0,0
0:0:14.154,10.1464,1.28932,0,0.000885,0,0
0:0:15.342,9.03434,1.15142,0,0.000885,0,0
0:0:16.532,10.7336,1.36516,0,0.000885,0,0
0:0:17.726,13.3714,1.70301,0,0.000885,0,0
0:0:18.932,16.365,2.08222,0,0.000885,0,0
0:0:20.135,19.0606,2.42695,0,0.000885,0,0
0:0:21.331,21.4093,2.72343,0,0.000885,0,0
0:0:22.522,24.0471,3.06127,0,0.000885,0,0
0:0:23.726,26.9206,3.42669,0,0.000885,0,0
0:0:24.938,28.74,3.66112,0,0.000885,0,0
0:0:26.131,30.9107,3.93691,0,0.000885,0,0
0:0:27.326,33.4907,4.26096,0,0.000885,0,0
0:0:28.522,35.0742,4.4678,0,0.000885,0,0
0:0:29.735,38.2992,4.87459,0,0.000885,0,0
0:0:30.932,40.2342,5.1228,0,0.000885,0,0
0:0:32.130,42.872,5.46065,0,0.000885,0,0
0:0:33.325,45.1005,5.74333,0,0.000885,0,0
0:0:34.540,47.6227,6.06049,0,0.000885,0,0
0:0:35.737,49.7356,6.32939,0,0.000885,0,0
0:0:36.929,52.1999,6.64655,0,0.000885,0,0
0:0:38.122,55.0734,7.01197,0,0.000885,0,0
0:0:39.335,56.7148,7.21881,0,0.000885,0,0
0:0:40.532,59.4149,7.56355,0,0.000885,0,0
0:0:41.728,61.937,7.8876,0,0.000885,0,0
0:0:42.925,64.3969,8.19787,0,0.000885,0,0
0:0:44.133,66.1006,8.4185,0,0.000885,0,0
0:0:45.337,68.7962,8.75634,0,0.000885,0,0
0:0:46.534,71.1449,9.05971,0,0.000885,0,0
0:0:47.726,73.1955,9.32171,0,0.000885,0,0
0:0:48.937,75.9534,9.67334,0,0.000885,0,0
0:0:50.141,78.1819,9.95603,0,0.000885,0,0
0:0:51.335,80.5262,10.2525,0,0.000885,0,0
0:0:52.527,82.8125,10.5421,0,0.000885,0,0
0:0:53.735,85.8062,10.9282,0,0.000885,0,0
0:0:54.939,86.3355,10.9902,0,0.000885,0,0
0:0:56.136,89.9697,11.4522,0,0.000885,0,0
0:0:57.333,92.0826,11.7211,0,0.000885,0,0
0:0:58.530,94.5425,12.0382,0,0.000885,0,0
0:0:59.744,97.0646,12.3623,0,0.000885,0,0
0:1:0.941,99.4133,12.6588,0,0.000885,0,0
0:1:2.133,101.055,12.8656,0,0.000885,0,0
0:1:3.328,104.222,13.2724,0,0.000885,0,0
0:1:4.542,105.805,13.4724,0,0.000885,0,0
0:1:5.742,109.03,13.8791,0,0.000885,0,0
0:1:6.938,110.792,14.1067,0,0.000885,0,0
0:1:8.133,113.665,14.4721,0,0.000885,0,0
0:1:9.342,115.778,14.741,0,0.000885,0,0
0:1:10.549,117.945,15.0168,0,0.000885,0,0
0:1:11.744,121.29,15.4443,0,0.000885,0,0
0:1:12.936,122.637,15.6166,0,0.000885,0,0
0:1:14.151,124.986,15.9131,0,0.000885,0,0
0:1:15.350,127.624,16.2509,0,0.000885,0,0
0:1:16.547,129.795,16.5267,0,0.000885,0,0
0:1:17.743,132.139,16.8232,0,0.000885,0,0
0:1:18.953,134.719,17.1542,0,0.000885,0,0
0:1:20.156,136.716,17.4093,0,0.000885,0,0
0:1:21.351,139.296,17.7333,0,0.000885,0,0
0:1:22.542,141.582,18.0298,0,0.000885,0,0
0:1:23.749,143.989,18.3332,0,0.000885,0,0
0:1:24.959,146.155,18.6089,0,0.000885,0,0
0:1:26.152,148.677,18.933,0,0.000885,0,0
0:1:27.351,151.2,19.2502,0,0.000885,0,0
0:1:28.548,153.077,19.4915,0,0.000885,0,0
0:1:29.764,155.483,19.7948,0,0.000885,0,0
0:1:30.961,158.592,20.1947,0,0.000885,0,0
0:1:32.155,160.701,20.4636,0,0.000885,0,0
0:1:33.355,162.462,20.6843,0,0.000885,0,0
0:1:34.569,165.452,21.0635,0,0.000885,0,0
0:1:35.762,167.449,21.3186,0,0.000885,0,0
0:1:36.952,169.971,21.6426,0,0.000885,0,0
0:1:38.149,172.845,22.0081,0,0.000885,0,0
0:1:39.363,174.78,22.2563,0,0.000885,0,0
0:1:40.561,177.302,22.5734,0,0.000885,0,0
0:1:41.758,179.472,22.8492,0,0.000885,0,0
0:1:42.951,181.172,23.0699,0,0.000885,0,0
0:1:44.161,183.694,23.387,0,0.000885,0,0
0:1:45.365,186.158,23.7042,0,0.000885,0,0
0:1:46.559,188.267,23.9731,0,0.000885,0,0
0:1:47.753,191.082,24.3316,0,0.000885,0,0
0:1:48.956,193.369,24.6212,0,0.000885,0,0
0:1:50.154,196.011,24.959,0,0.000885,0,0
0:1:51.339,198.182,25.2348,0,0.000885,0,0
0:1:52.529,200.232,25.4968,0,0.000885,0,0
0:1:53.736,202.639,25.8002,0,0.000885,0,0
0:1:54.931,205.512,26.1656,0,0.000885,0,0
0:1:56.130,207.505,26.4207,0,0.000885,0,0
0:1:57.322,210.085,26.7517,0,0.000885,0,0
0:1:58.528,212.371,27.0412,0,0.000885,0,0
0:1:59.733,214.778,27.3446,0,0.000885,0,0
0:2:0.928,216.891,27.6135,0,0.000885,0,0
0:2:2.112,219.293,27.9238,0,0.000885,0,0
0:2:3.312,221.993,28.2616,0,0.000885,0,0
0:2:4.515,224.515,28.5857,0,0.000885,0,0
0:2:5.703,227.037,28.9097,0,0.000885,0,0
0:2:6.891,228.563,29.1028,0,0.000885,0,0
0:2:8.074,231.259,29.4475,0,0.000885,0,0
0:2:9.281,232.9,29.6544,0,0.000885,0,0
0:2:10.476,235.836,30.0267,0,0.000885,0,0
0:2:11.661,238.18,30.3231,0,0.000885,0,0
0:2:12.849,240.231,30.5851,0,0.000885,0,0
0:2:14.046,242.931,30.9299,0,0.000885,0,0
0:2:15.242,245.275,31.2264,0,0.000885,0,0
0:2:16.430,247.681,31.5366,0,0.000885,0,0
0:2:17.613,249.616,31.7848,0,0.000885,0,0
0:2:18.815,251.436,32.0124,0,0.000885,0,0
0:2:20.019,254.545,32.4123,0,0.000885,0,0
0:2:21.232,257.241,32.7501,0,0.000885,0,0
0:2:22.426,259.118,32.9914,0,0.000885,0,0
0:2:23.625,261.462,33.2879,0,0.000885,0,0
0:2:24.831,264.22,33.6395,0,0.000885,0,0
0:2:26.039,266.858,33.9774,0,0.000885,0,0
0:2:27.235,268.855,34.2325,0,0.000885,0,0
0:2:28.424,270.963,34.5014,0,0.000885,0,0
0:2:29.631,272.667,34.7151,0,0.000885,0,0
0:2:30.826,276.008,35.1426,0,0.000885,0,0
0:2:32.018,278.063,35.4046,0,0.000885,0,0
0:2:33.225,280.821,35.7562,0,0.000885,0,0
0:2:34.435,282.871,36.0182,0,0.000885,0,0
0:2:35.622,285.393,36.3354,0,0.000885,0,0
0:2:36.831,287.506,36.6043,0,0.000885,0,0
0:2:38.026,290.086,36.9352,0,0.000885,0,0
0:2:39.233,292.137,37.1972,0,0.000885,0,0
0:2:40.434,294.601,37.5075,0,0.000885,0,0
0:2:41.628,297.066,37.8246,0,0.000885,0,0
0:2:42.821,299.53,38.1349,0,0.000885,0,0
0:2:44.026,301.638,38.4038,0,0.000885,0,0
0:2:45.220,303.867,38.6865,0,0.000885,0,0
0:2:46.405,305.98,38.9554,0,0.000885,0,0
0:2:47.591,308.618,39.2932,0,0.000885,0,0
0:2:48.790,310.788,39.569,0,0.000885,0,0
0:2:49.987,313.017,39.8517,0,0.000885,0,0
0:2:51.171,315.481,40.1689,0,0.000885,0,0
0:2:52.359,317.71,40.4515,0,0.000885,0,0
0:2:53.555,320.583,40.817,0,0.000885,0,0
0:2:54.748,322.99,41.1272,0,0.000885,0,0
0:2:55.937,325.392,41.4306,0,0.000885,0,0
0:2:57.130,327.327,41.6788,0,0.000885,0,0
0:2:58.341,330.027,42.0235,0,0.000885,0,0
0:2:59.546,332.02,42.2718,0,0.000885,0,0
0:3:0.730,334.075,42.5338,0,0.000885,0,0
0:3:1.921,336.419,42.8371,0,0.000885,0,0
0:3:3.109,339.177,43.1819,0,0.000885,0,0
0:3:4.315,341.405,43.4714,0,0.000885,0,0
0:3:5.502,343.75,43.7679,0,0.000885,0,0
0:3:6.691,346.45,44.1127,0,0.000885,0,0
0:3:7.880,348.443,44.3678,0,0.000885,0,0
0:3:9.085,350.671,44.6504,0,0.000885,0,0
0:3:10.274,352.726,44.9124,0,0.000885,0,0
0:3:11.462,355.128,45.2158,0,0.000885,0,0
0:3:12.645,358.002,45.5812,0,0.000885,0,0
0:3:13.845,359.937,45.8295,0,0.000885,0,0
0:3:15.042,362.517,46.1604,0,0.000885,0,0
0:3:16.236,364.923,46.4638,0,0.000885,0,0
0:3:17.428,367.503,46.7947,0,0.000885,0,0
0:3:18.636,369.616,47.0636,0,0.000885,0,0
0:3:19.831,371.96,47.3601,0,0.000885,0,0
0:3:21.036,374.247,47.6497,0,0.000885,0,0
0:3:22.231,376.538,47.9392,0,0.000885,0,0
0:3:23.430,378.588,48.2012,0,0.000885,0,0
0:3:24.635,381.52,48.5736,0,0.000885,0,0
0:3:25.832,383.926,48.8838,0,0.000885,0,0
0:3:27.038,385.919,49.1389,0,0.000885,0,0
0:3:28.228,388.147,49.4216,0,0.000885,0,0
0:3:29.432,391.377,49.8284,0,0.000885,0,0
0:3:30.637,392.84,50.0215,0,0.000885,0,0
0:3:31.830,395.247,50.3248,0,0.000885,0,0
0:3:33.039,397.769,50.642,0,0.000885,0,0
0:3:34.246,400.233,50.9592,0,0.000885,0,0
0:3:35.432,402.226,51.2143,0,0.000885,0,0
0:3:36.630,405.215,51.5935,0,0.000885,0,0
0:3:37.822,407.328,51.8624,0,0.000885,0,0
0:3:39.026,409.792,52.1795,0,0.000885,0,0
0:3:40.218,412.021,52.4622,0,0.000885,0,0
0:3:41.398,414.072,52.7242,0,0.000885,0,0
0:3:42.587,416.594,53.0414,0,0.000885,0,0
0:3:43.786,419.058,53.3585,0,0.000885,0,0
0:3:44.981,421.754,53.6964,0,0.000885,0,0
0:3:46.169,423.4,53.9101,0,0.000885,0,0
0:3:47.356,425.566,54.1859,0,0.000885,0,0
0:3:48.558,428.444,54.5513,0,0.000885,0,0
0:3:49.755,431.024,54.8823,0,0.000885,0,0
0:3:50.936,433.368,55.1787,0,0.000885,0,0
0:3:52.143,435.717,55.4752,0,0.000885,0,0
0:3:53.341,437.532,55.7096,0,0.000885,0,0
0:3:54.540,439.818,55.9992,0,0.000885,0,0
0:3:55.746,442.634,56.3577,0,0.000885,0,0
0:3:56.932,445.04,56.6611,0,0.000885,0,0
0:3:58.130,447.327,56.9576,0,0.000885,0,0
0:3:59.334,449.969,57.2885,0,0.000885,0,0
0:4:0.531,452.135,57.5712,0,0.000885,0,0
0:4:1.732,454.132,57.8194,0,0.000885,0,0
0:4:2.927,456.477,58.1228,0,0.000885,0,0
0:4:4.134,459.056,58.4469,0,0.000885,0,0
0:4:5.334,461.054,58.702,0,0.000885,0,0
0:4:6.521,463.692,59.0398,0,0.000885,0,0
0:4:7.710,466.507,59.3983,0,0.000885,0,0
0:4:8.916,468.264,59.619,0,0.000885,0,0
0:4:10.104,470.199,59.8672,0,0.000885,0,0
0:4:11.291,473.193,60.2464,0,0.000885,0,0
0:4:12.476,475.186,60.5015,0,0.000885,0,0
0:4:13.681,478.001,60.86,0,0.000885,0,0
0:4:14.874,480.23,61.1427,0,0.000885,0,0
0:4:16.059,482.401,61.4185,0,0.000885,0,0
0:4:17.243,484.745,61.7219,0,0.000885,0,0
0:4:18.449,486.974,62.0046,0,0.000885,0,0
0:4:19.650,489.558,62.3355,0,0.000885,0,0
0:4:20.830,491.724,62.6113,0,0.000885,0,0
0:4:22.029,493.895,62.8871,0,0.000885,0,0
0:4:23.238,496.417,63.2042,0,0.000885,0,0
0:4:24.431,498.472,63.4662,0,0.000885,0,0
0:4:25.626,501.346,63.8317,0,0.000885,0,0
0:4:26.822,503.396,64.0937,0,0.000885,0,0
0:4:28.012,505.745,64.3901,0,0.000885,0,0
0:4:29.216,508.498,64.7418,0,0.000885,0,0
0:4:30.403,510.024,64.9417,0,0.000885,0,0
0:4:31.589,512.84,65.2934,0,0.000885,0,0
0:4:32.775,515.304,65.6105,0,0.000885,0,0
0:4:33.978,517.413,65.8794,0,0.000885,0,0
0:4:35.171,519.997,66.2104,0,0.000885,0,0
0:4:36.354,522.226,66.493,0,0.000885,0,0
0:4:37.543,524.686,66.8033,0,0.000885,0,0
0:4:38.748,526.914,67.086,0,0.000885,0,0
0:4:39.946,529.205,67.3825,0,0.000885,0,0
0:4:41.144,531.433,67.6651,0,0.000885,0,0
0:4:42.327,533.662,67.9478,0,0.000885,0,0
0:4:43.540,535.597,68.196,0,0.000885,0,0
0:4:44.756,538.644,68.5822,0,0.000885,0,0
0:4:45.951,541.228,68.9131,0,0.000885,0,0
0:4:47.145,543.163,69.1544,0,0.000885,0,0
0:4:48.351,544.978,69.3888,0,0.000885,0,0
0:4:49.546,523.689,66.6792,0,0.000885,0,0
0:4:50.747,444.279,56.5646,0,0.000885,0,0
0:4:51.953,445.685,56.7439,0,0.000885,0,0
0:4:53.147,446.975,56.9093,0,0.000885,0,0
0:4:54.337,446.739,56.8817,0,0.000885,0,0
0:4:55.532,421.402,53.655,0,0.000885,0,0
0:4:56.714,415.304,52.8759,0,0.000885,0,0
0:4:57.884,382.165,48.6563,0,0.000885,0,0