File: DataFile2021-06-09_055013.csv
Test ID:,Date Tested:,Time:,Test Type:,Diameter Avg. (mm):,Cyl. Corr. Factor:,Height (mm):,Age (days):,Weight (kN):,Break Type:,Ramp Rate (MPa/s):,Load at Break (kN):,Stress at Break (MPa):
12,6/9/2021,05:50,Cylinder,100,1,200,0,3.6,3,0.23,297.24,37.85
Sample Time,Load (kN),Stress (MPa),Long. Strain,Trans. Strain,Chan1 Deflection (mm),Chan2 Deflection (mm)
0:0:18.243,5.8672,0.744634,0,0.000885,0,0
0:0:18.935,11.4364,1.45479,0,0.000885,0,0
0:0:19.630,10.3243,1.3169,0,0.000885,0,0
0:0:20.323,9.96846,1.26864,0,0.000885,0,0
0:0:21.014,9.38575,1.19279,0,0.000885,0,0
0:0:21.711,10.9693,1.39964,0,0.000885,0,0
0:0:22.405,12.9043,1.64095,0,0.000885,0,0
0:0:23.099,14.7814,1.88227,0,0.000885,0,0
0:0:23.805,15.7778,2.00637,0,0.000885,0,0
0:0:24.514,16.8321,2.14427,0,0.000885,0,0
0:0:25.219,18.1799,2.31664,0,0.000885,0,0
0:0:25.919,20.6442,2.6269,0,0.000885,0,0
0:0:26.612,21.992,2.79927,0,0.000885,0,0
0:0:27.312,23.5756,2.99922,0,0.000885,0,0
0:0:28.008,24.6921,3.14401,0,0.000885,0,0
0:0:28.711,26.2756,3.34396,0,0.000885,0,0
0:0:29.420,27.2142,3.46806,0,0.000885,0,0
0:0:30.124,28.74,3.66112,0,0.000885,0,0
0:0:30.818,30.0878,3.83349,0,0.000885,0,0
0:0:31.519,31.3778,3.99206,0,0.000885,0,0
0:0:32.213,32.2585,4.10928,0,0.000885,0,0
0:0:32.909,33.6063,4.28164,0,0.000885,0,0
0:0:33.609,35.3678,4.50228,0,0.000885,0,0
0:0:34.319,37.1827,4.7367,0,0.000885,0,0
0:0:35.026,38.2414,4.8677,0,0.000885,0,0
0:0:35.723,39.4735,5.02628,0,0.000885,0,0
0:0:36.418,41.1149,5.23312,0,0.000885,0,0
0:0:37.115,42.4049,5.39859,0,0.000885,0,0
0:0:37.812,43.7527,5.57096,0,0.000885,0,0
0:0:38.506,45.1005,5.74333,0,0.000885,0,0
0:0:39.214,46.217,5.88123,0,0.000885,0,0
0:0:39.921,47.3291,6.02602,0,0.000885,0,0
0:0:40.619,49.3842,6.28802,0,0.000885,0,0
0:0:41.317,50.4384,6.41902,0,0.000885,0,0
0:0:42.012,52.0798,6.63276,0,0.000885,0,0
0:0:42.709,53.1963,6.77065,0,0.000885,0,0
0:0:43.407,54.1349,6.89476,0,0.000885,0,0
0:0:44.117,55.1313,7.01886,0,0.000885,0,0
0:0:44.824,57.8892,7.3705,0,0.000885,0,0
0:0:45.521,59.059,7.52218,0,0.000885,0,0
0:0:46.214,60.4691,7.70144,0,0.000885,0,0
0:0:46.911,61.6435,7.84623,0,0.000885,0,0
0:0:47.607,62.6399,7.97723,0,0.000885,0,0
0:0:48.304,64.3969,8.19787,0,0.000885,0,0
0:0:49.013,65.5134,8.34266,0,0.000885,0,0
0:0:49.720,66.5098,8.46676,0,0.000885,0,0
0:0:50.420,68.387,8.70808,0,0.000885,0,0
0:0:51.118,70.0862,8.92182,0,0.000885,0,0
0:0:51.809,70.9091,9.02524,0,0.000885,0,0
0:0:52.507,72.0212,9.17003,0,0.000885,0,0
0:0:53.205,73.7248,9.38376,0,0.000885,0,0
0:0:53.911,75.424,9.6044,0,0.000885,0,0
0:0:54.619,76.4783,9.7354,0,0.000885,0,0
0:0:55.321,78.2398,9.96292,0,0.000885,0,0
0:0:56.017,79.7077,10.1491,0,0.000885,0,0
0:0:56.716,80.3527,10.2318,0,0.000885,0,0
0:0:57.409,81.9362,10.4318,0,0.000885,0,0
0:0:58.107,83.6355,10.6455,0,0.000885,0,0
0:0:58.804,84.752,10.7903,0,0.000885,0,0
0:0:59.514,85.7484,10.9144,0,0.000885,0,0
0:1:0.220,87.8568,11.1833,0,0.000885,0,0
0:1:0.920,89.1468,11.3488,0,0.000885,0,0
0:1:1.612,90.6147,11.5349,0,0.000885,0,0
0:1:2.311,91.7312,11.6797,0,0.000885,0,0
0:1:3.007,92.7855,11.8107,0,0.000885,0,0
0:1:3.711,94.1333,11.9831,0,0.000885,0,0
0:1:4.418,95.5434,12.1624,0,0.000885,0,0
0:1:5.119,97.1269,12.3692,0,0.000885,0,0
0:1:5.815,98.9418,12.5967,0,0.000885,0,0
0:1:6.514,99.7069,12.6932,0,0.000885,0,0
0:1:7.207,101.642,12.9415,0,0.000885,0,0
0:1:7.903,102.754,13.0862,0,0.000885,0,0
0:1:8.603,103.986,13.2379,0,0.000885,0,0
0:1:9.312,105.16,13.3896,0,0.000885,0,0
0:1:10.019,107.153,13.6447,0,0.000885,0,0
0:1:10.717,108.15,13.7688,0,0.000885,0,0
0:1:11.408,109.733,13.9688,0,0.000885,0,0
0:1:12.107,111.259,14.1687,0,0.000885,0,0
0:1:12.802,112.024,14.2653,0,0.000885,0,0
0:1:13.492,113.487,14.4514,0,0.000885,0,0
0:1:14.203,114.777,14.6169,0,0.000885,0,0
0:1:14.909,116.655,14.8513,0,0.000885,0,0
0:1:15.608,117.829,15.003,0,0.000885,0,0
0:1:16.307,119.47,15.2098,0,0.000885,0,0
0:1:17.009,120.351,15.3202,0,0.000885,0,0
0:1:17.705,121.29,15.4443,0,0.000885,0,0
0:1:18.406,123.576,15.7338,0,0.000885,0,0
0:1:19.116,124.75,15.8855,0,0.000885,0,0
0:1:19.823,126.098,16.0579,0,0.000885,0,0
0:1:20.516,127.152,16.1889,0,0.000885,0,0
0:1:21.211,129.15,16.444,0,0.000885,0,0
0:1:21.909,130.088,16.5612,0,0.000885,0,0
0:1:22.604,131.965,16.8025,0,0.000885,0,0
0:1:23.310,133.135,16.9542,0,0.000885,0,0
0:1:24.020,134.719,17.1542,0,0.000885,0,0
0:1:24.726,135.893,17.3058,0,0.000885,0,0
0:1:25.423,136.596,17.3955,0,0.000885,0,0
0:1:26.122,137.886,17.5541,0,0.000885,0,0
0:1:26.814,140.115,17.8367,0,0.000885,0,0
0:1:27.511,140.644,17.9057,0,0.000885,0,0
0:1:28.209,142.757,18.1746,0,0.000885,0,0
0:1:28.912,144.105,18.3469,0,0.000885,0,0
0:1:29.620,145.101,18.4779,0,0.000885,0,0
0:1:30.321,146.333,18.6296,0,0.000885,0,0
0:1:31.018,148.677,18.933,0,0.000885,0,0
0:1:31.715,149.442,19.0295,0,0.000885,0,0
0:1:32.409,150.497,19.1605,0,0.000885,0,0
0:1:33.106,151.551,19.2984,0,0.000885,0,0
0:1:33.815,153.606,19.5604,0,0.000885,0,0
0:1:34.525,154.602,19.6845,0,0.000885,0,0
0:1:35.230,156.128,19.8776,0,0.000885,0,0
0:1:35.926,157.77,20.0913,0,0.000885,0,0
0:1:36.619,159.117,20.2568,0,0.000885,0,0
0:1:37.319,160.643,20.4567,0,0.000885,0,0
0:1:38.013,161.466,20.5602,0,0.000885,0,0
0:1:38.718,163.223,20.7808,0,0.000885,0,0
0:1:39.425,165.042,21.0152,0,0.000885,0,0
0:1:40.125,166.159,21.1531,0,0.000885,0,0
0:1:40.824,167.622,21.3393,0,0.000885,0,0
0:1:41.520,168.387,21.4427,0,0.000885,0,0
0:1:42.211,170.265,21.6771,0,0.000885,0,0
0:1:42.910,171.141,21.7874,0,0.000885,0,0
0:1:43.608,172.667,21.9874,0,0.000885,0,0
0:1:44.318,174.428,22.208,0,0.000885,0,0
0:1:45.022,175.425,22.339,0,0.000885,0,0
0:1:45.716,176.714,22.4976,0,0.000885,0,0
0:1:46.413,178.414,22.7182,0,0.000885,0,0
0:1:47.110,179.352,22.8354,0,0.000885,0,0
0:1:47.812,180.82,23.0216,0,0.000885,0,0
0:1:48.512,182.168,23.194,0,0.000885,0,0
0:1:49.220,183.164,23.3181,0,0.000885,0,0
0:1:49.928,185.451,23.6145,0,0.000885,0,0
0:1:50.627,186.625,23.7593,0,0.000885,0,0
0:1:51.320,187.857,23.9179,0,0.000885,0,0
0:1:52.017,188.618,24.0144,0,0.000885,0,0
0:1:52.715,190.673,24.2764,0,0.000885,0,0
0:1:53.407,192.55,24.5178,0,0.000885,0,0
0:1:54.113,192.959,24.566,0,0.000885,0,0
0:1:54.811,194.601,24.7798,0,0.000885,0,0
0:1:55.506,196.478,25.0142,0,0.000885,0,0
0:1:56.208,198.182,25.2348,0,0.000885,0,0
0:1:56.894,199.529,25.4072,0,0.000885,0,0
0:1:57.587,200.117,25.4761,0,0.000885,0,0
0:1:58.277,201.171,25.614,0,0.000885,0,0
0:1:58.975,203.284,25.8829,0,0.000885,0,0
0:1:59.678,204.454,26.0346,0,0.000885,0,0
0:2:0.375,205.864,26.2139,0,0.000885,0,0
0:2:1.064,207.212,26.3862,0,0.000885,0,0
0:2:1.758,208.501,26.5448,0,0.000885,0,0
0:2:2.445,209.969,26.731,0,0.000885,0,0
0:2:3.136,211.375,26.9102,0,0.000885,0,0
0:2:3.840,212.02,26.993,0,0.000885,0,0
0:2:4.540,213.43,27.1722,0,0.000885,0,0
0:2:5.232,215.014,27.3791,0,0.000885,0,0
0:2:5.924,216.949,27.6204,0,0.000885,0,0
0:2:6.613,218.239,27.7859,0,0.000885,0,0
0:2:7.302,218.826,27.8617,0,0.000885,0,0
0:2:8.002,220.467,28.0686,0,0.000885,0,0
0:2:8.698,222.051,28.2754,0,0.000885,0,0
0:2:9.401,223.283,28.4271,0,0.000885,0,0
0:2:10.102,224.924,28.6408,0,0.000885,0,0
0:2:10.799,226.392,28.827,0,0.000885,0,0
0:2:11.492,227.153,28.9235,0,0.000885,0,0
0:2:12.193,228.972,29.151,0,0.000885,0,0
0:2:12.899,230.084,29.2958,0,0.000885,0,0
0:2:13.595,231.494,29.4751,0,0.000885,0,0
0:2:14.299,233.136,29.6819,0,0.000885,0,0
0:2:14.999,234.835,29.9026,0,0.000885,0,0
0:2:15.702,235.836,30.0267,0,0.000885,0,0
0:2:16.399,236.77,30.1439,0,0.000885,0,0
0:2:17.113,238.647,30.3852,0,0.000885,0,0
0:2:17.804,239.47,30.4886,0,0.000885,0,0
0:2:18.499,241.111,30.7024,0,0.000885,0,0
0:2:19.201,242.695,30.9023,0,0.000885,0,0
0:2:19.899,244.572,31.1367,0,0.000885,0,0
0:2:20.597,245.746,31.2884,0,0.000885,0,0
0:2:21.313,246.979,31.447,0,0.000885,0,0
0:2:22.001,248.326,31.6194,0,0.000885,0,0
0:2:22.709,248.971,31.7021,0,0.000885,0,0
0:2:23.401,250.906,31.9434,0,0.000885,0,0
0:2:24.105,252.606,32.164,0,0.000885,0,0
0:2:24.806,253.135,32.233,0,0.000885,0,0
0:2:25.511,254.954,32.4605,0,0.000885,0,0
0:2:26.216,256.653,32.6811,0,0.000885,0,0
0:2:26.906,257.943,32.8397,0,0.000885,0,0
0:2:27.610,259.06,32.9845,0,0.000885,0,0
0:2:28.297,260.408,33.1569,0,0.000885,0,0
0:2:28.998,261.698,33.3224,0,0.000885,0,0
0:2:29.699,262.814,33.4603,0,0.000885,0,0
0:2:30.394,264.571,33.6878,0,0.000885,0,0
0:2:31.097,265.919,33.8602,0,0.000885,0,0
0:2:31.806,267.329,34.0394,0,0.000885,0,0
0:2:32.496,268.561,34.1911,0,0.000885,0,0
0:2:33.190,269.851,34.3566,0,0.000885,0,0
0:2:33.895,271.493,34.5703,0,0.000885,0,0
0:2:34.599,272.609,34.7082,0,0.000885,0,0
0:2:35.298,273.254,34.7909,0,0.000885,0,0
0:2:35.996,275.247,35.0461,0,0.000885,0,0
0:2:36.695,276.537,35.2115,0,0.000885,0,0
0:2:37.389,278.121,35.4115,0,0.000885,0,0
0:2:38.077,280.234,35.6804,0,0.000885,0,0
0:2:38.783,281.288,35.8114,0,0.000885,0,0
0:2:39.483,282.342,35.9493,0,0.000885,0,0
0:2:40.177,283.81,36.1354,0,0.000885,0,0
0:2:40.871,284.691,36.2457,0,0.000885,0,0
0:2:41.562,286.568,36.4871,0,0.000885,0,0
0:2:42.252,287.271,36.5767,0,0.000885,0,0
0:2:42.946,289.263,36.8318,0,0.000885,0,0
0:2:43.641,290.553,36.9973,0,0.000885,0,0
0:2:44.348,291.434,37.1076,0,0.000885,0,0
0:2:45.048,292.137,37.1972,0,0.000885,0,0
0:2:45.737,293.778,37.4041,0,0.000885,0,0
0:2:46.427,295.131,37.5764,0,0.000885,0,0
0:2:47.120,296.243,37.7212,0,0.000885,0,0
0:2:47.817,297.123,37.8315,0,0.000885,0,0
0:2:48.508,297.417,37.866,0,0.000885,0,0
0:2:49.212,294.717,37.5282,0,0.000885,0,0
0:2:49.912,290.731,37.018,0,0.000885,0,0
0:2:50.601,276.128,35.1564,0,0.000885,0,0
0:2:51.292,255.541,32.5364,0,0.000885,0,0
0:2:51.977,238.002,30.3025,0,0.000885,0,0
0:2:52.670,212.314,27.0343,0,0.000885,0,0