File: DataFile2021-07-28_092346.csv
Test ID:,Date Tested:,Time:,Test Type:,Diameter Avg. (mm):,Cyl. Corr. Factor:,Height (mm):,Age (days):,Weight (kN):,Break Type:,Ramp Rate (MPa/s):,Load at Break (kN):,Stress at Break (MPa):
12,7/28/2021,09:23,Cylinder,150,1,300,0,13.69,3,0.35,1763.5,99.79
Sample Time,Load (kN),Stress (MPa),Long. Strain,Trans. Strain,Chan1 Deflection (mm),Chan2 Deflection (mm)
0:0:11.684,5.45352,0.310264,0,0.000885,0,0
0:0:12.980,13.0778,0.737739,0,0.000885,0,0
0:0:14.270,19.6478,1.11006,0,0.000885,0,0
0:0:15.568,27.45,1.55132,0,0.000885,0,0
0:0:16.858,33.6641,1.90295,0,0.000885,0,0
0:0:18.176,41.4085,2.34422,0,0.000885,0,0
0:0:19.474,49.9713,2.82685,0,0.000885,0,0
0:0:20.771,58.592,3.31638,0,0.000885,0,0
0:0:22.061,68.854,3.89554,0,0.000885,0,0
0:0:23.378,78.2976,4.43333,0,0.000885,0,0
0:0:24.678,87.3898,4.94354,0,0.000885,0,0
0:0:25.972,93.6084,5.29517,0,0.000885,0,0
0:0:27.275,101.815,5.76402,0,0.000885,0,0
0:0:28.586,109.266,6.1846,0,0.000885,0,0
0:0:29.880,118.941,6.72928,0,0.000885,0,0
0:0:31.172,125.925,7.12918,0,0.000885,0,0
0:0:32.476,133.958,7.57734,0,0.000885,0,0
0:0:33.785,141.818,8.0255,0,0.000885,0,0
0:0:35.082,150.03,8.48745,0,0.000885,0,0
0:0:36.374,158.179,8.94939,0,0.000885,0,0
0:0:37.683,165.514,9.36308,0,0.000885,0,0
0:0:38.992,174.659,9.88708,0,0.000885,0,0
0:0:40.291,182.404,10.3215,0,0.000885,0,0
0:0:41.581,190.264,10.7696,0,0.000885,0,0
0:0:42.883,198.591,11.2385,0,0.000885,0,0
0:0:44.180,205.922,11.6521,0,0.000885,0,0
0:0:45.465,215.014,12.1692,0,0.000885,0,0
0:0:46.753,222.051,12.5622,0,0.000885,0,0
0:0:48.059,230.498,13.0449,0,0.000885,0,0
0:0:49.349,237.886,13.4586,0,0.000885,0,0
0:0:50.638,245.453,13.8929,0,0.000885,0,0
0:0:51.938,254.719,14.4169,0,0.000885,0,0
0:0:53.243,262.872,14.8789,0,0.000885,0,0
0:0:54.540,270.496,15.3064,0,0.000885,0,0
0:0:55.826,277.654,15.7132,0,0.000885,0,0
0:0:57.114,285.861,16.1751,0,0.000885,0,0
0:0:58.424,294.192,16.6508,0,0.000885,0,0
0:0:59.709,302.341,17.1059,0,0.000885,0,0
0:1:0.997,310.201,17.5541,0,0.000885,0,0
0:1:2.287,318.47,18.0229,0,0.000885,0,0
0:1:3.594,326.33,18.4642,0,0.000885,0,0
0:1:4.886,334.306,18.9192,0,0.000885,0,0
0:1:6.174,342.695,19.395,0,0.000885,0,0
0:1:7.466,349.848,19.7948,0,0.000885,0,0
0:1:8.770,358.473,20.2844,0,0.000885,0,0
0:1:10.055,365.92,20.705,0,0.000885,0,0
0:1:11.351,374.131,21.1738,0,0.000885,0,0
0:1:12.654,383.045,21.6771,0,0.000885,0,0
0:1:13.954,390.145,22.077,0,0.000885,0,0
0:1:15.253,398.062,22.5252,0,0.000885,0,0
0:1:16.554,406.919,23.0285,0,0.000885,0,0
0:1:17.860,414.192,23.4353,0,0.000885,0,0
0:1:19.149,422.11,23.8834,0,0.000885,0,0
0:1:20.457,430.379,24.3523,0,0.000885,0,0
0:1:21.748,438.764,24.828,0,0.000885,0,0
0:1:23.055,447.327,25.3107,0,0.000885,0,0
0:1:24.342,454.542,25.7243,0,0.000885,0,0
0:1:25.628,462.869,26.1932,0,0.000885,0,0
0:1:26.912,470.377,26.6207,0,0.000885,0,0
0:1:28.220,478.998,27.1033,0,0.000885,0,0
0:1:29.509,485.977,27.5032,0,0.000885,0,0
0:1:30.791,494.424,27.9789,0,0.000885,0,0
0:1:32.079,502.284,28.4202,0,0.000885,0,0
0:1:33.386,510.789,28.9028,0,0.000885,0,0
0:1:34.673,518.058,29.3165,0,0.000885,0,0
0:1:35.957,526.038,29.7647,0,0.000885,0,0
0:1:37.255,533.893,30.2128,0,0.000885,0,0
0:1:38.553,542.87,30.723,0,0.000885,0,0
0:1:39.838,550.668,31.1643,0,0.000885,0,0
0:1:41.142,558.47,31.6056,0,0.000885,0,0
0:1:42.462,566.739,32.0675,0,0.000885,0,0
0:1:43.760,574.893,32.5295,0,0.000885,0,0
0:1:45.050,582.81,32.9776,0,0.000885,0,0
0:1:46.340,590.964,33.4396,0,0.000885,0,0
0:1:47.644,597.832,33.8326,0,0.000885,0,0
0:1:48.948,606.813,34.3359,0,0.000885,0,0
0:1:50.251,614.976,34.7978,0,0.000885,0,0
0:1:51.545,623.076,35.2598,0,0.000885,0,0
0:1:52.855,630.882,35.7011,0,0.000885,0,0
0:1:54.156,638.511,36.1354,0,0.000885,0,0
0:1:55.462,646.611,36.5905,0,0.000885,0,0
0:1:56.757,655.067,37.0662,0,0.000885,0,0
0:1:58.070,663.047,37.5213,0,0.000885,0,0
0:1:59.363,670.854,37.9625,0,0.000885,0,0
0:2:0.651,678.781,38.4107,0,0.000885,0,0
0:2:1.966,686.823,38.8657,0,0.000885,0,0
0:2:3.278,694.51,39.3001,0,0.000885,0,0
0:2:4.568,702.61,39.7621,0,0.000885,0,0
0:2:5.860,710.888,40.2309,0,0.000885,0,0
0:2:7.165,719.575,40.7204,0,0.000885,0,0
0:2:8.477,727.266,41.1548,0,0.000885,0,0
0:2:9.766,735.954,41.6443,0,0.000885,0,0
0:2:11.059,742.76,42.0304,0,0.000885,0,0
0:2:12.363,751.918,42.5475,0,0.000885,0,0
0:2:13.665,760.664,43.044,0,0.000885,0,0
0:2:14.951,767.883,43.4508,0,0.000885,0,0
0:2:16.254,776.046,43.9127,0,0.000885,0,0
0:2:17.560,783.732,44.3471,0,0.000885,0,0
0:2:18.863,792.126,44.8228,0,0.000885,0,0
0:2:20.161,799.345,45.2365,0,0.000885,0,0
0:2:21.452,807.859,45.7122,0,0.000885,0,0
0:2:22.761,815.782,46.1673,0,0.000885,0,0
0:2:24.059,823.063,46.5741,0,0.000885,0,0
0:2:25.359,831.693,47.0636,0,0.000885,0,0
0:2:26.660,840.024,47.5325,0,0.000885,0,0
0:2:27.971,848.187,47.9944,0,0.000885,0,0
0:2:29.268,856.461,48.4632,0,0.000885,0,0
0:2:30.561,864.445,48.9183,0,0.000885,0,0
0:2:31.854,871.722,49.332,0,0.000885,0,0
0:2:33.166,879.178,49.7526,0,0.000885,0,0
0:2:34.452,887.807,50.2421,0,0.000885,0,0
0:2:35.747,896.673,50.7385,0,0.000885,0,0
0:2:37.054,905.36,51.2349,0,0.000885,0,0
0:2:38.365,912.286,51.6279,0,0.000885,0,0
0:2:39.652,920.266,52.0761,0,0.000885,0,0
0:2:40.946,927.49,52.4829,0,0.000885,0,0
0:2:42.242,936.471,52.9931,0,0.000885,0,0
0:2:43.552,944.687,53.4551,0,0.000885,0,0
0:2:44.851,952.378,53.8963,0,0.000885,0,0
0:2:46.164,960.593,54.3583,0,0.000885,0,0
0:2:47.465,968.578,54.8133,0,0.000885,0,0
0:2:48.771,976.442,55.2546,0,0.000885,0,0
0:2:50.064,984.543,55.7165,0,0.000885,0,0
0:2:51.365,993.057,56.1923,0,0.000885,0,0
0:2:52.674,1000.51,56.6197,0,0.000885,0,0
0:2:53.970,1009.08,57.1024,0,0.000885,0,0
0:2:55.264,1016.94,57.5505,0,0.000885,0,0
0:2:56.563,1024.81,57.9918,0,0.000885,0,0
0:2:57.874,1032.15,58.4055,0,0.000885,0,0
0:2:59.168,1041.54,58.9364,0,0.000885,0,0
0:3:0.463,1049.82,59.4052,0,0.000885,0,0
0:3:1.748,1057.27,59.8327,0,0.000885,0,0
0:3:3.062,1065.14,60.274,0,0.000885,0,0
0:3:4.353,1072.3,60.6808,0,0.000885,0,0
0:3:5.648,1081.1,61.1772,0,0.000885,0,0
0:3:6.946,1089.03,61.6253,0,0.000885,0,0
0:3:8.256,1097.42,62.1011,0,0.000885,0,0
0:3:9.544,1105.23,62.5423,0,0.000885,0,0
0:3:10.838,1113.03,62.9836,0,0.000885,0,0
0:3:12.138,1121.43,63.4593,0,0.000885,0,0
0:3:13.446,1129.47,63.9144,0,0.000885,0,0
0:3:14.736,1137.45,64.3695,0,0.000885,0,0
0:3:16.029,1145.08,64.7969,0,0.000885,0,0
0:3:17.330,1153.3,65.2658,0,0.000885,0,0
0:3:18.635,1161.88,65.7484,0,0.000885,0,0
0:3:19.929,1169.27,66.169,0,0.000885,0,0
0:3:21.218,1177.72,66.6447,0,0.000885,0,0
0:3:22.522,1185.47,67.086,0,0.000885,0,0
0:3:23.826,1193.28,67.5273,0,0.000885,0,0
0:3:25.120,1201.55,67.9961,0,0.000885,0,0
0:3:26.410,1209.36,68.4374,0,0.000885,0,0
0:3:27.723,1217.58,68.8993,0,0.000885,0,0
0:3:29.020,1226.21,69.3888,0,0.000885,0,0
0:3:30.308,1233.49,69.8025,0,0.000885,0,0
0:3:31.602,1241.59,70.2576,0,0.000885,0,0
0:3:32.914,1249.69,70.7195,0,0.000885,0,0
0:3:34.212,1257.9,71.1815,0,0.000885,0,0
0:3:35.500,1266.12,71.6503,0,0.000885,0,0
0:3:36.794,1273.34,72.0571,0,0.000885,0,0
0:3:38.107,1282.09,72.5535,0,0.000885,0,0
0:3:39.400,1289.9,72.9948,0,0.000885,0,0
0:3:40.692,1297.7,73.4361,0,0.000885,0,0
0:3:41.987,1305.39,73.8704,0,0.000885,0,0
0:3:43.300,1313.73,74.3393,0,0.000885,0,0
0:3:44.588,1322.3,74.8288,0,0.000885,0,0
0:3:45.882,1329.28,75.2218,0,0.000885,0,0
0:3:47.178,1338.44,75.7389,0,0.000885,0,0
0:3:48.486,1346.13,76.1733,0,0.000885,0,0
0:3:49.775,1354.41,76.6421,0,0.000885,0,0
0:3:51.067,1362.39,77.0972,0,0.000885,0,0
0:3:52.364,1369.84,77.5178,0,0.000885,0,0
0:3:53.673,1378.36,78.0004,0,0.000885,0,0
0:3:54.963,1385.58,78.4072,0,0.000885,0,0
0:3:56.273,1394.32,78.9036,0,0.000885,0,0
0:3:57.584,1402.54,79.3656,0,0.000885,0,0
0:3:58.881,1409.64,79.7723,0,0.000885,0,0
0:4:0.177,1418.68,80.2826,0,0.000885,0,0
0:4:1.475,1426.49,80.7238,0,0.000885,0,0
0:4:2.787,1434.71,81.1858,0,0.000885,0,0
0:4:4.082,1442.69,81.6408,0,0.000885,0,0
0:4:5.374,1449.97,82.0545,0,0.000885,0,0
0:4:6.666,1458.01,82.5096,0,0.000885,0,0
0:4:7.979,1466.81,83.006,0,0.000885,0,0
0:4:9.275,1474.62,83.4472,0,0.000885,0,0
0:4:10.571,1482.74,83.9092,0,0.000885,0,0
0:4:11.863,1490.51,84.3436,0,0.000885,0,0
0:4:13.178,1498.64,84.8055,0,0.000885,0,0
0:4:14.471,1506.77,85.2675,0,0.000885,0,0
0:4:15.773,1514.36,85.6949,0,0.000885,0,0
0:4:17.077,1522.84,86.1776,0,0.000885,0,0
0:4:18.389,1531.32,86.6533,0,0.000885,0,0
0:4:19.678,1538.8,87.0808,0,0.000885,0,0
0:4:20.971,1547.28,87.5565,0,0.000885,0,0
0:4:22.288,1555.23,88.0047,0,0.000885,0,0
0:4:23.588,1563.18,88.4597,0,0.000885,0,0
0:4:24.875,1571.6,88.9355,0,0.000885,0,0
0:4:26.180,1579.72,89.3974,0,0.000885,0,0
0:4:27.483,1587.26,89.818,0,0.000885,0,0
0:4:28.785,1595.03,90.2593,0,0.000885,0,0
0:4:30.074,1603.51,90.7419,0,0.000885,0,0
0:4:31.376,1611.76,91.2038,0,0.000885,0,0
0:4:32.682,1619.29,91.6313,0,0.000885,0,0
0:4:33.980,1627.77,92.114,0,0.000885,0,0
0:4:35.281,1635.25,92.5345,0,0.000885,0,0
0:4:36.580,1643.55,93.0034,0,0.000885,0,0
0:4:37.888,1651.74,93.4722,0,0.000885,0,0
0:4:39.185,1658.98,93.879,0,0.000885,0,0
0:4:40.476,1667.93,94.3823,0,0.000885,0,0
0:4:41.781,1675.29,94.8029,0,0.000885,0,0
0:4:43.094,1683.89,95.2855,0,0.000885,0,0
0:4:44.381,1692.01,95.7475,0,0.000885,0,0
0:4:45.674,1699.43,96.1681,0,0.000885,0,0
0:4:46.979,1707.85,96.6438,0,0.000885,0,0
0:4:48.289,1716.16,97.1127,0,0.000885,0,0
0:4:49.577,1721.04,97.3884,0,0.000885,0,0
0:4:50.881,1731.23,97.9676,0,0.000885,0,0
0:4:52.177,1739.94,98.464,0,0.000885,0,0
0:4:53.486,1747.31,98.8777,0,0.000885,0,0
0:4:54.775,1753.31,99.2156,0,0.000885,0,0
0:4:56.076,1763.5,99.7947,0,0.000885,0,0
0:4:57.389,1627.12,92.0795,0,0.000885,0,0
0:4:58.684,1641.26,92.8793,0,0.000885,0,0
0:4:59.980,1652.33,93.4998,0,0.000885,0,0
0:5:1.283,1638.13,92.7,0,0.000885,0,0
0:5:2.087,1424.49,80.6066,0,0.000885,0,0