File: DataFile2021-06-06_020640.csv
Test ID:,Date Tested:,Time:,Test Type:,Diameter Avg. (mm):,Cyl. Corr. Factor:,Height (mm):,Age (days):,Weight (kN):,Break Type:,Ramp Rate (MPa/s):,Load at Break (kN):,Stress at Break (MPa):
12,6/6/2021,02:06,Cylinder,150,1,300,0,13.39,Invalid/No Break,0.25,1625.29,91.97
Sample Time,Load (kN),Stress (MPa),Long. Strain,Trans. Strain,Chan1 Deflection (mm),Chan2 Deflection (mm)
0:0:14.058,60.0599,3.39912,0,0.000885,0,0
0:0:15.549,66.2741,3.75075,0,0.000885,0,0
0:0:17.043,73.6047,4.16443,0,0.000885,0,0
0:0:18.535,79.4719,4.49538,0,0.000885,0,0
0:0:20.035,86.6869,4.90217,0,0.000885,0,0
0:0:21.548,93.0212,5.2607,0,0.000885,0,0
0:0:23.040,99.2354,5.61233,0,0.000885,0,0
0:0:24.540,106.628,6.03291,0,0.000885,0,0
0:0:26.050,112.842,6.38455,0,0.000885,0,0
0:0:27.543,119.822,6.77755,0,0.000885,0,0
0:0:29.037,126.276,7.14297,0,0.000885,0,0
0:0:30.551,132.962,7.52218,0,0.000885,0,0
0:0:32.050,139.412,7.8876,0,0.000885,0,0
0:0:33.543,145.982,8.25992,0,0.000885,0,0
0:0:35.047,152.667,8.63913,0,0.000885,0,0
0:0:36.555,159.589,9.03213,0,0.000885,0,0
0:0:38.046,166.159,9.40445,0,0.000885,0,0
0:0:39.540,172.431,9.75608,0,0.000885,0,0
0:0:41.058,179.472,10.156,0,0.000885,0,0
0:0:42.552,185.922,10.5214,0,0.000885,0,0
0:0:44.042,192.608,10.9006,0,0.000885,0,0
0:0:45.550,199.881,11.3143,0,0.000885,0,0
0:0:47.035,206.037,11.659,0,0.000885,0,0
0:0:48.515,212.314,12.0176,0,0.000885,0,0
0:0:50.010,218.999,12.3899,0,0.000885,0,0
0:0:51.507,225.747,12.776,0,0.000885,0,0
0:0:52.997,232.139,13.1345,0,0.000885,0,0
0:0:54.487,238.709,13.5068,0,0.000885,0,0
0:0:55.993,244.688,13.8447,0,0.000885,0,0
0:0:57.495,251.671,14.2446,0,0.000885,0,0
0:0:58.997,258.295,14.6169,0,0.000885,0,0
0:1:0.497,265.158,15.003,0,0.000885,0,0
0:1:2.007,271.671,15.3753,0,0.000885,0,0
0:1:3.507,278.708,15.7683,0,0.000885,0,0
0:1:5.016,285.629,16.1613,0,0.000885,0,0
0:1:6.507,292.315,16.5405,0,0.000885,0,0
0:1:8.008,299.174,16.9266,0,0.000885,0,0
0:1:9.509,305.041,17.2645,0,0.000885,0,0
0:1:11.006,311.843,17.6437,0,0.000885,0,0
0:1:12.508,318.355,18.016,0,0.000885,0,0
0:1:13.999,324.573,18.3676,0,0.000885,0,0
0:1:15.499,331.726,18.7744,0,0.000885,0,0
0:1:16.987,338.06,19.133,0,0.000885,0,0
0:1:18.468,345.511,19.5535,0,0.000885,0,0
0:1:19.959,351.143,19.8707,0,0.000885,0,0
0:1:21.455,357.415,20.2223,0,0.000885,0,0
0:1:22.935,364.514,20.6291,0,0.000885,0,0
0:1:24.423,370.728,20.9807,0,0.000885,0,0
0:1:25.923,376.947,21.3324,0,0.000885,0,0
0:1:27.408,383.984,21.7323,0,0.000885,0,0
0:1:28.909,390.612,22.1046,0,0.000885,0,0
0:1:30.420,397.297,22.4838,0,0.000885,0,0
0:1:31.909,404.922,22.9113,0,0.000885,0,0
0:1:33.409,410.731,23.2422,0,0.000885,0,0
0:1:34.918,417.71,23.6352,0,0.000885,0,0
0:1:36.415,423.457,23.9662,0,0.000885,0,0
0:1:37.893,430.73,24.373,0,0.000885,0,0
0:1:39.383,437.18,24.7384,0,0.000885,0,0
0:1:40.881,444.159,25.1314,0,0.000885,0,0
0:1:42.364,450.2,25.4761,0,0.000885,0,0
0:1:43.846,456.009,25.8071,0,0.000885,0,0
0:1:45.349,463.282,26.2139,0,0.000885,0,0
0:1:46.837,470.084,26.6,0,0.000885,0,0
0:1:48.324,476.124,26.9447,0,0.000885,0,0
0:1:49.813,482.516,27.3032,0,0.000885,0,0
0:1:51.312,490.434,27.7514,0,0.000885,0,0
0:1:52.813,496.711,28.1099,0,0.000885,0,0
0:1:54.300,502.342,28.4271,0,0.000885,0,0
0:1:55.810,509.437,28.827,0,0.000885,0,0
0:1:57.312,516.065,29.2062,0,0.000885,0,0
0:1:58.804,522.106,29.544,0,0.000885,0,0
0:2:0.306,529.556,29.9646,0,0.000885,0,0
0:2:1.796,536.064,30.3369,0,0.000885,0,0
0:2:3.278,541.873,30.661,0,0.000885,0,0
0:2:4.770,549.146,31.0747,0,0.000885,0,0
0:2:6.266,556.299,31.4815,0,0.000885,0,0
0:2:7.749,561.815,31.7917,0,0.000885,0,0
0:2:9.240,569.555,32.233,0,0.000885,0,0
0:2:10.734,575.947,32.5915,0,0.000885,0,0
0:2:12.216,582.695,32.9707,0,0.000885,0,0
0:2:13.706,589.203,33.343,0,0.000885,0,0
0:2:15.210,595.074,33.674,0,0.000885,0,0
0:2:16.706,602.116,34.0739,0,0.000885,0,0
0:2:18.195,608.868,34.4531,0,0.000885,0,0
0:2:19.705,615.207,34.8116,0,0.000885,0,0
0:2:21.217,622.017,35.1977,0,0.000885,0,0
0:2:22.701,628.12,35.5425,0,0.000885,0,0
0:2:24.192,635.162,35.9424,0,0.000885,0,0
0:2:25.706,641.972,36.3285,0,0.000885,0,0
0:2:27.196,647.492,36.6387,0,0.000885,0,0
0:2:28.684,654.885,37.0593,0,0.000885,0,0
0:2:30.190,661.05,37.411,0,0.000885,0,0
0:2:31.705,668.915,37.8522,0,0.000885,0,0
0:2:33.192,674.666,38.1763,0,0.000885,0,0
0:2:34.698,681.419,38.5624,0,0.000885,0,0
0:2:36.216,688.109,38.9416,0,0.000885,0,0
0:2:37.716,694.158,39.2794,0,0.000885,0,0
0:2:39.211,700.906,39.6655,0,0.000885,0,0
0:2:40.718,708.539,40.093,0,0.000885,0,0
0:2:42.205,714.7,40.4446,0,0.000885,0,0
0:2:43.693,720.808,40.7894,0,0.000885,0,0
0:2:45.201,727.556,41.1686,0,0.000885,0,0
0:2:46.696,734.014,41.534,0,0.000885,0,0
0:2:48.186,740.647,41.9132,0,0.000885,0,0
0:2:49.685,747.982,42.3269,0,0.000885,0,0
0:2:51.188,754.383,42.6923,0,0.000885,0,0
0:2:52.678,761.309,43.0784,0,0.000885,0,0
0:2:54.163,767.999,43.4577,0,0.000885,0,0
0:2:55.675,773.928,43.7955,0,0.000885,0,0
0:2:57.164,780.325,44.154,0,0.000885,0,0
0:2:58.653,787.429,44.5608,0,0.000885,0,0
0:3:0.167,794.003,44.9331,0,0.000885,0,0
0:3:1.656,800.929,45.3261,0,0.000885,0,0
0:3:3.146,806.391,45.6295,0,0.000885,0,0
0:3:4.646,813.842,46.057,0,0.000885,0,0
0:3:6.150,819.829,46.3948,0,0.000885,0,0
0:3:7.637,827.285,46.8154,0,0.000885,0,0
0:3:9.124,833.686,47.1739,0,0.000885,0,0
0:3:10.638,839.731,47.5187,0,0.000885,0,0
0:3:12.125,846.247,47.891,0,0.000885,0,0
0:3:13.611,852.293,48.2288,0,0.000885,0,0
0:3:15.124,859.921,48.6632,0,0.000885,0,0
0:3:16.611,866.852,49.0562,0,0.000885,0,0
0:3:18.121,873.835,49.4492,0,0.000885,0,0
0:3:19.622,879.823,49.787,0,0.000885,0,0
0:3:21.123,887.158,50.2007,0,0.000885,0,0
0:3:22.622,893.207,50.5455,0,0.000885,0,0
0:3:24.108,899.84,50.9178,0,0.000885,0,0
0:3:25.624,906.766,51.3108,0,0.000885,0,0
0:3:27.110,912.926,51.6624,0,0.000885,0,0
0:3:28.611,919.149,52.014,0,0.000885,0,0
0:3:30.116,926.431,52.4277,0,0.000885,0,0
0:3:31.612,932.476,52.7656,0,0.000885,0,0
0:3:33.121,940.047,53.1931,0,0.000885,0,0
0:3:34.617,946.386,53.5516,0,0.000885,0,0
0:3:36.122,952.787,53.917,0,0.000885,0,0
0:3:37.631,960.18,54.3376,0,0.000885,0,0
0:3:39.130,965.936,54.6616,0,0.000885,0,0
0:3:40.634,972.332,55.0202,0,0.000885,0,0
0:3:42.118,979.316,55.4201,0,0.000885,0,0
0:3:43.607,985.481,55.7648,0,0.000885,0,0
0:3:45.119,993.052,56.1923,0,0.000885,0,0
0:3:46.610,998.804,56.5232,0,0.000885,0,0
0:3:48.107,1005.38,56.8955,0,0.000885,0,0
0:3:49.612,1012.78,57.3092,0,0.000885,0,0
0:3:51.132,1019.7,57.7022,0,0.000885,0,0
0:3:52.619,1025.28,58.0194,0,0.000885,0,0
0:3:54.107,1032.85,58.4469,0,0.000885,0,0
0:3:55.620,1038.66,58.7778,0,0.000885,0,0
0:3:57.129,1045.94,59.1915,0,0.000885,0,0
0:3:58.617,1052.04,59.5362,0,0.000885,0,0
0:4:0.132,1058.85,59.9223,0,0.000885,0,0
0:4:1.629,1065.31,60.2809,0,0.000885,0,0
0:4:3.127,1072.47,60.6877,0,0.000885,0,0
0:4:4.642,1078.75,61.0462,0,0.000885,0,0
0:4:6.141,1085.5,61.4254,0,0.000885,0,0
0:4:7.630,1092.49,61.8253,0,0.000885,0,0
0:4:9.133,1098.53,62.1631,0,0.000885,0,0
0:4:10.646,1105.46,62.5561,0,0.000885,0,0
0:4:12.133,1112.15,62.9353,0,0.000885,0,0
0:4:13.630,1119.55,63.3559,0,0.000885,0,0
0:4:15.134,1124.72,63.6455,0,0.000885,0,0
0:4:16.629,1131.99,64.0592,0,0.000885,0,0
0:4:18.122,1137.63,64.3763,0,0.000885,0,0
0:4:19.641,1144.44,64.7625,0,0.000885,0,0
0:4:21.135,1151.19,65.1417,0,0.000885,0,0
0:4:22.633,1158.41,65.5554,0,0.000885,0,0
0:4:24.127,1164.46,65.8932,0,0.000885,0,0
0:4:25.637,1171.5,66.2931,0,0.000885,0,0
0:4:27.136,1177.9,66.6585,0,0.000885,0,0
0:4:28.634,1185.18,67.0653,0,0.000885,0,0
0:4:30.140,1191.16,67.4031,0,0.000885,0,0
0:4:31.635,1198.15,67.803,0,0.000885,0,0
0:4:33.132,1204.43,68.1547,0,0.000885,0,0
0:4:34.640,1210.94,68.527,0,0.000885,0,0
0:4:36.142,1218.4,68.9476,0,0.000885,0,0
0:4:37.631,1223.91,69.2578,0,0.000885,0,0
0:4:39.137,1230.96,69.6577,0,0.000885,0,0
0:4:40.641,1238.71,70.099,0,0.000885,0,0
0:4:42.131,1244.05,70.3955,0,0.000885,0,0
0:4:43.625,1251.09,70.7954,0,0.000885,0,0
0:4:45.145,1258.14,71.1953,0,0.000885,0,0
0:4:46.639,1264.54,71.5607,0,0.000885,0,0
0:4:48.135,1270.93,71.9192,0,0.000885,0,0
0:4:49.640,1277.39,72.2846,0,0.000885,0,0
0:4:51.141,1283.32,72.6225,0,0.000885,0,0
0:4:52.637,1291.48,73.0844,0,0.000885,0,0
0:4:54.135,1297.11,73.4016,0,0.000885,0,0
0:4:55.636,1303.75,73.7739,0,0.000885,0,0
0:4:57.132,1311.14,74.1945,0,0.000885,0,0
0:4:58.637,1317.83,74.5737,0,0.000885,0,0
0:5:0.148,1324.29,74.9391,0,0.000885,0,0
0:5:1.635,1330.1,75.2701,0,0.000885,0,0
0:5:3.133,1338.73,75.7596,0,0.000885,0,0
0:5:4.639,1344.19,76.063,0,0.000885,0,0
0:5:6.137,1350,76.3939,0,0.000885,0,0
0:5:7.636,1357.05,76.7938,0,0.000885,0,0
0:5:9.137,1362.98,77.1316,0,0.000885,0,0
0:5:10.650,1370.6,77.5591,0,0.000885,0,0
0:5:12.139,1378.06,77.9797,0,0.000885,0,0
0:5:13.636,1383.58,78.2969,0,0.000885,0,0
0:5:15.153,1390.56,78.6899,0,0.000885,0,0
0:5:16.647,1397.25,79.0691,0,0.000885,0,0
0:5:18.135,1403.07,79.4,0,0.000885,0,0
0:5:19.641,1410.4,79.8137,0,0.000885,0,0
0:5:21.135,1416.1,80.1378,0,0.000885,0,0
0:5:22.632,1423.84,80.5721,0,0.000885,0,0
0:5:24.137,1430.18,80.9307,0,0.000885,0,0
0:5:25.643,1436.53,81.2892,0,0.000885,0,0
0:5:27.140,1443.27,81.6753,0,0.000885,0,0
0:5:28.639,1450.08,82.0614,0,0.000885,0,0
0:5:30.151,1457.13,82.4544,0,0.000885,0,0
0:5:31.642,1463.29,82.806,0,0.000885,0,0
0:5:33.140,1470.51,83.2128,0,0.000885,0,0
0:5:34.648,1476.73,83.5645,0,0.000885,0,0
0:5:36.150,1482.61,83.8954,0,0.000885,0,0
0:5:37.637,1489.56,84.2953,0,0.000885,0,0
0:5:39.135,1497.04,84.7159,0,0.000885,0,0
0:5:40.638,1502.57,85.0261,0,0.000885,0,0
0:5:42.137,1509.35,85.4123,0,0.000885,0,0
0:5:43.637,1515.7,85.7708,0,0.000885,0,0
0:5:45.147,1522.95,86.1845,0,0.000885,0,0
0:5:46.641,1529.84,86.5706,0,0.000885,0,0
0:5:48.141,1536.08,86.9222,0,0.000885,0,0
0:5:49.650,1543.03,87.3152,0,0.000885,0,0
0:5:51.153,1549.33,87.6737,0,0.000885,0,0
0:5:52.640,1554.68,87.9771,0,0.000885,0,0
0:5:54.147,1563.52,88.4804,0,0.000885,0,0
0:5:55.659,1570.47,88.8734,0,0.000885,0,0
0:5:57.147,1574.71,89.1078,0,0.000885,0,0
0:5:58.637,1582.54,89.556,0,0.000885,0,0
0:6:0.151,1589.02,89.9214,0,0.000885,0,0
0:6:1.641,1594.26,90.2179,0,0.000885,0,0
0:6:3.141,1603.38,90.735,0,0.000885,0,0
0:6:4.655,1608.45,91.0177,0,0.000885,0,0
0:6:6.157,1615.1,91.3969,0,0.000885,0,0
0:6:7.646,1621.99,91.783,0,0.000885,0,0
0:6:9.141,1623.58,91.8726,0,0.000885,0,0
0:6:10.161,1576.24,89.1975,0,0.000885,0,0